eeg1,eeg2,eeg3,eeg4,eeg5,time

525.390625, 138.671875, -87.890625, -20.01953125, 0.0, 1622079566.790038
-942.87109375, 46.875, 41.015625, 65.91796875, 0.0, 1622079566.7939444
-380.37109375, 40.0390625, 73.73046875, -35.64453125, 0.0, 1622079566.7978506
-1000.0, 116.69921875, -20.99609375, -127.44140625, 0.0, 1622079566.8017569
-145.5078125, 108.3984375, -56.15234375, -44.921875, 0.0, 1622079566.805663
-830.56640625, -104.4921875, 36.62109375, 114.2578125, 0.0, 1622079566.8095694
80.56640625, -55.17578125, 88.8671875, 18.5546875, 0.0, 1622079566.8134756
-1000.0, 162.59765625, 2.9296875, -153.3203125, 0.0, 1622079566.8173819
-276.85546875, 23.4375, -77.1484375, -76.171875, 0.0, 1622079566.821288
-833.49609375, -120.1171875, -32.71484375, 85.44921875, 0.0, 1622079566.8251944
244.140625, 53.7109375, 40.52734375, 6.8359375, 0.0, 1622079566.8291006
-1000.0, 107.91015625, 21.97265625, -130.859375, 0.0, 1622079566.8330069
-703.61328125, 83.0078125, -65.91796875, -112.3046875, 0.0, 1622079566.836913
935.05859375, 104.00390625, -86.9140625, 14.16015625, 0.0, 1622079566.8408194
606.4453125, 90.33203125, -4.8828125, 54.19921875, 0.0, 1622079566.8447256
-965.33203125, 100.5859375, 18.5546875, -74.70703125, 0.0, 1622079566.8486319
-1000.0, -45.8984375, 6.34765625, -57.6171875, 0.0, 1622079566.852538
285.64453125, -143.06640625, 27.34375, 141.11328125, 0.0, 1622079566.8564444
-867.67578125, 40.52734375, 12.20703125, 114.2578125, 0.0, 1622079566.8603506
-250.48828125, 83.984375, 23.92578125, -53.22265625, 0.0, 1622079566.8642569
-1000.0, -22.94921875, 25.87890625, -52.734375, 0.0, 1622079566.868163
-198.2421875, -22.94921875, -31.73828125, 41.015625, 0.0, 1622079566.8720694
-821.77734375, 82.03125, -54.6875, 67.3828125, 0.0, 1622079566.8759756
215.33203125, 49.31640625, 28.80859375, 1.953125, 0.0, 1622079566.8798819
-1000.0, -29.78515625, 46.875, -41.015625, 0.0, 1622079566.883788
-306.640625, 7.8125, -52.734375, -3.41796875, 0.0, 1622079566.8876944
-825.68359375, 85.9375, -97.16796875, 62.5, 0.0, 1622079566.8916006
290.0390625, 47.36328125, -8.7890625, 40.0390625, 0.0, 1622079566.8955069
-1000.0, -291.9921875, 143.5546875, 70.3125, 0.0, 1622079566.899413
-826.171875, -211.9140625, 29.78515625, 23.92578125, 0.0, 1622079566.9033194
779.296875, 127.9296875, -125.48828125, -5.37109375, 0.0, 1622079566.9072256
752.9296875, 22.4609375, -8.7890625, 62.01171875, 0.0, 1622079566.9111319
-810.546875, -39.55078125, 53.22265625, -40.52734375, 0.0, 1622079566.915038
-1000.0, 55.6640625, -58.59375, -120.1171875, 0.0, 1622079566.9189444
75.68359375, 99.609375, -120.60546875, -30.2734375, 0.0, 1622079566.9228506
-820.80078125, 23.4375, -17.578125, 67.3828125, 0.0, 1622079566.9267569
-78.61328125, -24.90234375, 95.703125, -16.6015625, 0.0, 1622079566.930663
-1000.0, 10.7421875, 68.84765625, -111.328125, 0.0, 1622079566.9345694
-230.46875, 172.8515625, -61.5234375, -68.359375, 0.0, 1622079566.9384756
-823.2421875, -324.70703125, 43.45703125, 132.8125, 0.0, 1622079566.9423819
241.69921875, -760.25390625, 236.328125, 166.9921875, 0.0, 1622079566.946288
-1000.0, -119.62890625, 91.30859375, -68.359375, 0.0, 1622079566.9501944
-431.15234375, 215.8203125, -87.890625, -116.69921875, 0.0, 1622079566.9541006
-873.53515625, -198.2421875, 1.46484375, 92.7734375, 0.0, 1622079566.9580069
434.5703125, -461.42578125, 165.52734375, 149.90234375, 0.0, 1622079566.961913
-1000.0, 35.64453125, 81.0546875, -77.63671875, 0.0, 1622079566.9658194
-893.06640625, 165.52734375, -54.19921875, -132.32421875, 0.0, 1622079566.9697256
656.25, 57.12890625, -61.5234375, 22.4609375, 0.0, 1622079566.9736319
947.265625, 41.50390625, 19.04296875, 68.84765625, 0.0, 1622079566.977538
-555.6640625, 120.1171875, 54.6875, -58.10546875, 0.0, 1622079566.9814444
-1000.0, 168.9453125, -48.33984375, -123.046875, 0.0, 1622079566.9853506
-56.640625, -357.421875, -83.984375, 4.8828125, 0.0, 1622079566.9892569
-810.546875, -357.421875, -3.90625, 93.75, 0.0, 1622079566.993163
98.14453125, 184.5703125, 24.4140625, -31.25, 0.0, 1622079566.9970694
-1000.0, 43.9453125, -22.94921875, -108.88671875, 0.0, 1622079567.0009756
-247.55859375, -186.03515625, -78.61328125, -14.16015625, 0.0, 1622079567.0048819
-814.94140625, 56.15234375, -43.45703125, 74.21875, 0.0, 1622079567.008788
240.72265625, 170.41015625, 18.5546875, 12.20703125, 0.0, 1622079567.0126944
-1000.0, 72.265625, 4.8828125, -108.3984375, 0.0, 1622079567.0166006
-501.46484375, 94.23828125, -90.33203125, -90.33203125, 0.0, 1622079567.0205069
-922.8515625, 111.81640625, -110.83984375, 43.9453125, 0.0, 1622079567.024413
612.79296875, 219.7265625, -41.50390625, 18.06640625, 0.0, 1622079567.0283194
-936.5234375, -238.28125, 95.703125, -4.39453125, 0.0, 1622079567.0322256
-1000.0, -715.8203125, 113.76953125, 64.94140625, 0.0, 1622079567.0361319
411.62109375, -76.171875, -63.4765625, 47.36328125, 0.0, 1622079567.040038
-889.16015625, 237.79296875, -66.40625, 25.87890625, 0.0, 1622079567.0439444
-292.48046875, -88.8671875, 137.20703125, 57.12890625, 0.0, 1622079567.0478506
-1000.0, -162.109375, 108.3984375, -6.34765625, 0.0, 1622079567.0517569
-146.484375, 143.06640625, -117.1875, -82.03125, 0.0, 1622079567.055663
-809.08203125, 169.43359375, -76.66015625, 36.1328125, 0.0, 1622079567.0595694
200.68359375, 62.98828125, 63.4765625, 19.04296875, 0.0, 1622079567.0634756
-1000.0, 41.9921875, 23.92578125, -94.7265625, 0.0, 1622079567.0673819
-267.578125, 128.90625, -118.1640625, -92.7734375, 0.0, 1622079567.071288
-815.4296875, 153.3203125, -91.30859375, 29.296875, 0.0, 1622079567.0751944
428.22265625, 59.5703125, 86.42578125, 90.33203125, 0.0, 1622079567.0791006
-1000.0, 32.2265625, 73.2421875, -47.36328125, 0.0, 1622079567.0830069
-698.73046875, 115.72265625, -89.35546875, -143.5546875, 0.0, 1622079567.086913
952.1484375, 115.72265625, -85.44921875, -11.71875, 0.0, 1622079567.0908194
740.234375, 88.8671875, 11.71875, 28.3203125, 0.0, 1622079567.0947256
-808.59375, 80.078125, 56.15234375, -82.51953125, 0.0, 1622079567.0986319
-1000.0, 102.05078125, -69.3359375, -156.73828125, 0.0, 1622079567.102538
226.07421875, 77.63671875, -88.8671875, -5.37109375, 0.0, 1622079567.1064444
-833.49609375, 33.69140625, 32.2265625, 119.140625, 0.0, 1622079567.1103506
-159.66796875, 46.38671875, 45.41015625, -38.57421875, 0.0, 1622079567.1142569
-1000.0, 106.4453125, -55.6640625, -162.109375, 0.0, 1622079567.118163
-215.8203125, -1.953125, -49.8046875, -11.71875, 0.0, 1622079567.1220694
-823.2421875, -185.546875, 123.046875, 205.56640625, 0.0, 1622079567.1259756
228.515625, -43.45703125, 94.23828125, 46.38671875, 0.0, 1622079567.1298819
-1000.0, 116.69921875, -37.109375, -150.390625, 0.0, 1622079567.133788
-375.0, -134.27734375, -22.4609375, -24.4140625, 0.0, 1622079567.1376944
-849.609375, -280.2734375, 62.98828125, 149.4140625, 0.0, 1622079567.1416006
321.77734375, 34.1796875, 32.2265625, 22.94921875, 0.0, 1622079567.1455069
-1000.0, 71.77734375, -14.16015625, -124.51171875, 0.0, 1622079567.149413
-904.296875, 67.3828125, -125.48828125, -141.11328125, 0.0, 1622079567.1533194
674.8046875, 90.8203125, -132.8125, -13.18359375, 0.0, 1622079567.1572256
780.2734375, 79.58984375, -20.01953125, 31.25, 0.0, 1622079567.1611319
-779.296875, 58.10546875, 47.8515625, -78.61328125, 0.0, 1622079567.165038
-1000.0, -36.1328125, -8.7890625, -113.28125, 0.0, 1622079567.1689444
8.30078125, -5.859375, -101.07421875, -21.484375, 0.0, 1622079567.1728506
-860.83984375, 86.9140625, -55.17578125, 43.9453125, 0.0, 1622079567.1767569
-163.0859375, 61.03515625, 35.15625, -36.62109375, 0.0, 1622079567.180663
-1000.0, -537.59765625, 66.40625, -40.52734375, 0.0, 1622079567.1845694
-221.6796875, -442.87109375, -26.85546875, -10.7421875, 0.0, 1622079567.1884756
-833.984375, 180.6640625, -57.12890625, 16.6015625, 0.0, 1622079567.1923819
241.2109375, -33.69140625, 63.96484375, 0.0, 0.0, 1622079567.196288
-1000.0, -162.109375, 28.80859375, -102.5390625, 0.0, 1622079567.2001944
-558.59375, 90.8203125, -105.46875, -102.05078125, 0.0, 1622079567.2041006
-934.08203125, 138.671875, -103.02734375, 24.4140625, 0.0, 1622079567.2080069
360.3515625, 26.3671875, 0.0, 41.9921875, 0.0, 1622079567.211913
-1000.0, 15.13671875, 33.69140625, -73.2421875, 0.0, 1622079567.2158194
-1000.0, 40.52734375, -58.10546875, -112.3046875, 0.0, 1622079567.2197256
443.84765625, 191.40625, -120.60546875, -25.390625, 0.0, 1622079567.2236319
729.4921875, -350.5859375, 2.44140625, 107.421875, 0.0, 1622079567.227538
-848.6328125, -743.65234375, 133.30078125, 74.70703125, 0.0, 1622079567.2314444
-1000.0, -50.78125, 10.25390625, -89.84375, 0.0, 1622079567.2353506
-120.60546875, 294.43359375, -141.6015625, -78.125, 0.0, 1622079567.2392569
-830.078125, -327.1484375, 48.828125, 188.4765625, 0.0, 1622079567.243163
79.1015625, -668.45703125, 228.515625, 213.37890625, 0.0, 1622079567.2470694
-1000.0, 78.125, -0.9765625, -95.703125, 0.0, 1622079567.2509756
-242.67578125, 217.7734375, -125.48828125, -81.0546875, 0.0, 1622079567.2548819
-819.82421875, 93.26171875, -52.734375, 74.70703125, 0.0, 1622079567.258788
242.67578125, 89.35546875, 45.8984375, 29.78515625, 0.0, 1622079567.2626944
-1000.0, 170.41015625, 12.20703125, -116.2109375, 0.0, 1622079567.2666006
-588.37890625, 161.62109375, -85.44921875, -119.62890625, 0.0, 1622079567.2705069
-967.28515625, -339.84375, -55.6640625, 38.0859375, 0.0, 1622079567.274413
610.3515625, -248.53515625, 38.57421875, 68.84765625, 0.0, 1622079567.2783194
-943.359375, 223.6328125, 52.734375, -70.80078125, 0.0, 1622079567.2822256
-1000.0, 62.98828125, -41.015625, -119.140625, 0.0, 1622079567.2861319
329.58984375, -137.20703125, -82.51953125, 3.90625, 0.0, 1622079567.290038
-862.3046875, 68.84765625, -10.25390625, 69.3359375, 0.0, 1622079567.2939444
-248.046875, 155.76171875, 44.43359375, -56.640625, 0.0, 1622079567.2978506
-1000.0, 102.5390625, -21.97265625, -133.7890625, 0.0, 1622079567.3017569
-136.71875, 114.74609375, -106.4453125, -41.9921875, 0.0, 1622079567.305663
-804.6875, 136.23046875, -44.921875, 59.08203125, 0.0, 1622079567.3095694
206.0546875, 128.90625, 33.69140625, -24.90234375, 0.0, 1622079567.3134756
-1000.0, 20.01953125, 22.94921875, -92.28515625, 0.0, 1622079567.3173819
-278.3203125, -93.75, -32.2265625, -3.41796875, 0.0, 1622079567.321288
-815.4296875, 48.828125, -57.12890625, 61.5234375, 0.0, 1622079567.3251944
322.265625, 152.83203125, 17.08984375, -9.765625, 0.0, 1622079567.3291006
-1000.0, -62.5, 59.08203125, -79.1015625, 0.0, 1622079567.3330069
-658.203125, -95.703125, -38.0859375, -66.89453125, 0.0, 1622079567.336913
946.2890625, 121.09375, -89.84375, 19.04296875, 0.0, 1622079567.3408194
793.45703125, 89.35546875, 10.25390625, 55.6640625, 0.0, 1622079567.3447256
-748.53515625, 91.30859375, 30.76171875, -48.828125, 0.0, 1622079567.3486319
-1000.0, 92.7734375, -77.1484375, -107.91015625, 0.0, 1622079567.352538
225.5859375, 109.375, -134.765625, -22.4609375, 0.0, 1622079567.3564444
-816.89453125, 125.9765625, -59.08203125, 70.80078125, 0.0, 1622079567.3603506
-121.58203125, -453.125, 52.734375, 25.390625, 0.0, 1622079567.3642569
-1000.0, -366.2109375, -8.7890625, -77.1484375, 0.0, 1622079567.368163
-210.44921875, 179.6875, -138.671875, -53.7109375, 0.0, 1622079567.3720694
-817.87109375, 98.14453125, -79.58984375, 75.68359375, 0.0, 1622079567.3759756
236.328125, 43.9453125, 31.25, 30.76171875, 0.0, 1622079567.3798819
-1000.0, 94.7265625, -19.53125, -87.890625, 0.0, 1622079567.383788
-366.2109375, 146.484375, -135.7421875, -75.1953125, 0.0, 1622079567.3876944
-847.65625, 74.70703125, -91.796875, 66.89453125, 0.0, 1622079567.3916006
421.875, 5.37109375, 18.06640625, 61.5234375, 0.0, 1622079567.3955069
-1000.0, 36.1328125, 30.2734375, -70.80078125, 0.0, 1622079567.399413
-809.5703125, 207.51953125, -82.03125, -116.2109375, 0.0, 1622079567.4033194
791.9921875, -228.02734375, -42.48046875, 70.3125, 0.0, 1622079567.4072256
863.76953125, -741.69921875, 142.08984375, 201.66015625, 0.0, 1622079567.4111319
-656.73828125, -175.78125, 102.5390625, -13.18359375, 0.0, 1622079567.415038
-1000.0, 235.83984375, -48.828125, -139.16015625, 0.0, 1622079567.4189444
23.4375, -312.01171875, -98.14453125, 2.9296875, 0.0, 1622079567.4228506
-812.01171875, -677.734375, -6.34765625, 120.1171875, 0.0, 1622079567.4267569
1.46484375, 10.25390625, 27.34375, -15.625, 0.0, 1622079567.430663
-1000.0, 179.19921875, -47.36328125, -132.8125, 0.0, 1622079567.4345694
-238.28125, 21.484375, -142.08984375, -77.63671875, 0.0, 1622079567.4384756
-825.1953125, 40.52734375, -103.02734375, 44.921875, 0.0, 1622079567.4423819
237.79296875, 149.4140625, 7.8125, 9.27734375, 0.0, 1622079567.446288
-1000.0, 187.98828125, 10.25390625, -100.5859375, 0.0, 1622079567.4501944
-727.5390625, -388.18359375, -146.484375, -130.37109375, 0.0, 1622079567.4541006
915.52734375, -348.14453125, -164.55078125, 0.0, 0.0, 1622079567.4580069
555.17578125, 257.8125, -11.23046875, 42.48046875, 0.0, 1622079567.461913
-1000.0, 68.84765625, -8.30078125, -85.9375, 0.0, 1622079567.4658194
-1000.0, -286.1328125, -120.1171875, -127.44140625, 0.0, 1622079567.4697256
418.9453125, 18.06640625, -139.16015625, 0.0, 0.0, 1622079567.4736319
-965.8203125, 237.79296875, -39.0625, 78.61328125, 0.0, 1622079567.477538
-439.453125, 88.8671875, 34.66796875, -31.73828125, 0.0, 1622079567.4814444
-1000.0, 87.40234375, -51.26953125, -117.67578125, 0.0, 1622079567.4853506
-129.39453125, 148.4375, -160.15625, -32.71484375, 0.0, 1622079567.4892569
-817.87109375, 218.26171875, -63.4765625, 81.0546875, 0.0, 1622079567.493163
141.11328125, -78.125, 69.3359375, 3.90625, 0.0, 1622079567.4970694
-1000.0, -233.88671875, 7.8125, -89.84375, 0.0, 1622079567.5009756
-250.48828125, 70.3125, -125.48828125, -29.78515625, 0.0, 1622079567.5048819
-815.91796875, 230.46875, -104.4921875, 81.54296875, 0.0, 1622079567.508788
238.76953125, -325.68359375, 24.4140625, 83.49609375, 0.0, 1622079567.5126944
-1000.0, -714.35546875, 42.96875, -54.19921875, 0.0, 1622079567.5166006
-666.9921875, -1.46484375, -91.30859375, -112.3046875, 0.0, 1622079567.5205069
974.609375, 274.4140625, -166.50390625, -1.953125, 0.0, 1622079567.524413
574.70703125, -262.20703125, 27.34375, 101.5625, 0.0, 1622079567.5283194
-968.75, -375.48828125, 100.5859375, -17.578125, 0.0, 1622079567.5322256
-1000.0, 155.76171875, -92.7734375, -153.80859375, 0.0, 1622079567.5361319
239.2578125, 174.31640625, -148.92578125, -46.38671875, 0.0, 1622079567.540038
-885.7421875, 33.69140625, -31.73828125, 12.20703125, 0.0, 1622079567.5439444
-286.1328125, 22.4609375, 34.66796875, -97.65625, 0.0, 1622079567.5478506
-1000.0, 153.80859375, -46.38671875, -197.265625, 0.0, 1622079567.5517569
-208.0078125, 105.46875, -112.79296875, -115.72265625, 0.0, 1622079567.555663
-830.56640625, -327.63671875, -20.01953125, 50.78125, 0.0, 1622079567.5595694
199.70703125, -166.015625, 70.80078125, -31.73828125, 0.0, 1622079567.5634756
-1000.0, 167.96875, 0.48828125, -163.0859375, 0.0, 1622079567.5673819
-339.35546875, 106.93359375, -109.375, -109.86328125, 0.0, 1622079567.571288
-838.8671875, 111.81640625, -71.77734375, 12.6953125, 0.0, 1622079567.5751944
278.80859375, 83.984375, 13.18359375, -1.46484375, 0.0, 1622079567.5791006
-1000.0, 164.55078125, 7.32421875, -135.7421875, 0.0, 1622079567.5830069
-926.7578125, -170.41015625, -85.9375, -147.94921875, 0.0, 1622079567.586913
629.8828125, -360.3515625, -117.67578125, 11.23046875, 0.0, 1622079567.5908194
782.2265625, 42.48046875, -27.34375, 53.7109375, 0.0, 1622079567.5947256
-754.8828125, 172.8515625, 43.9453125, -36.1328125, 0.0, 1622079567.5986319
-1000.0, -233.3984375, -179.19921875, -216.30859375, 0.0, 1622079567.602538
-197.265625, -613.28125, -372.55859375, -230.95703125, 0.0, 1622079567.6064444
-861.328125, -62.5, -125.0, 23.92578125, 0.0, 1622079567.6103506
24.4140625, 219.7265625, 41.9921875, 15.13671875, 0.0, 1622079567.6142569
-1000.0, -345.703125, -85.44921875, -134.27734375, 0.0, 1622079567.618163
-233.3984375, -417.48046875, -189.453125, -73.2421875, 0.0, 1622079567.6220694
-817.87109375, 157.71484375, -88.37890625, 104.98046875, 0.0, 1622079567.6259756
239.74609375, 136.71875, 4.8828125, 48.33984375, 0.0, 1622079567.6298819
-1000.0, 81.54296875, -3.90625, -60.05859375, 0.0, 1622079567.633788
-409.1796875, 93.26171875, -103.515625, -43.9453125, 0.0, 1622079567.6376944
-863.28125, 143.5546875, -125.9765625, 86.42578125, 0.0, 1622079567.6416006
394.53125, 142.578125, -20.5078125, 97.16796875, 0.0, 1622079567.6455069
-1000.0, -561.03515625, -62.5, -96.19140625, 0.0, 1622079567.649413
-857.91015625, -488.76953125, -160.15625, -131.8359375, 0.0, 1622079567.6533194
724.12109375, 291.50390625, -51.26953125, 92.28515625, 0.0, 1622079567.6572256
872.0703125, -20.01953125, 20.5078125, 90.8203125, 0.0, 1622079567.6611319
-671.875, -433.10546875, -52.24609375, -121.58203125, 0.0, 1622079567.665038
-1000.0, 23.92578125, -55.17578125, -91.796875, 0.0, 1622079567.6689444
23.4375, 245.1171875, -62.01171875, 46.875, 0.0, 1622079567.6728506
-803.7109375, 99.609375, -9.765625, 124.51171875, 0.0, 1622079567.6767569
54.6875, 66.40625, 57.12890625, 44.43359375, 0.0, 1622079567.680663
-1000.0, 107.91015625, -0.48828125, -63.4765625, 0.0, 1622079567.6845694
-232.421875, 266.6015625, -30.76171875, 35.15625, 0.0, 1622079567.6884756
-830.078125, -293.45703125, -122.55859375, 21.484375, 0.0, 1622079567.6923819
113.76953125, -744.62890625, -127.44140625, -104.00390625, 0.0, 1622079567.696288
-1000.0, -65.4296875, 7.32421875, -54.19921875, 0.0, 1622079567.7001944
-460.44921875, 312.01171875, -20.01953125, 4.8828125, 0.0, 1622079567.7041006
-907.71484375, -357.421875, -112.79296875, 13.18359375, 0.0, 1622079567.7080069
525.390625, -701.66015625, -86.9140625, -50.29296875, 0.0, 1622079567.711913
-1000.0, 111.81640625, 82.03125, -23.4375, 0.0, 1622079567.7158194
-979.98046875, 256.8359375, 16.6015625, -28.80859375, 0.0, 1622079567.7197256
490.234375, 27.34375, -75.68359375, 52.734375, 0.0, 1622079567.7236319
-908.69140625, 46.875, 9.765625, 119.62890625, 0.0, 1622079567.727538
-306.15234375, 213.8671875, 123.046875, 34.1796875, 0.0, 1622079567.7314444
-1000.0, 207.03125, 56.15234375, -49.8046875, 0.0, 1622079567.7353506
-210.44921875, -192.3828125, -82.51953125, -22.94921875, 0.0, 1622079567.7392569
-828.61328125, -116.2109375, -1.46484375, 104.00390625, 0.0, 1622079567.743163
185.546875, 207.03125, 98.6328125, 65.4296875, 0.0, 1622079567.7470694
-1000.0, 189.94140625, 61.03515625, -26.3671875, 0.0, 1622079567.7509756
-253.90625, 268.5546875, 13.671875, 67.87109375, 0.0, 1622079567.7548819
-813.4765625, 203.61328125, 9.27734375, 140.625, 0.0, 1622079567.758788
245.1171875, 138.18359375, 86.9140625, 78.61328125, 0.0, 1622079567.7626944
-1000.0, 92.28515625, 112.3046875, -38.57421875, 0.0, 1622079567.7666006
-684.08203125, 81.0546875, -9.27734375, -47.36328125, 0.0, 1622079567.7705069
945.80078125, 133.30078125, -74.21875, 77.63671875, 0.0, 1622079567.774413
654.78515625, 111.81640625, 41.015625, 99.609375, 0.0, 1622079567.7783194
-884.765625, 64.453125, 116.2109375, -13.18359375, 0.0, 1622079567.7822256
-1000.0, 47.8515625, -19.04296875, -69.3359375, 0.0, 1622079567.7861319
165.0390625, 57.12890625, -87.40234375, 27.83203125, 0.0, 1622079567.790038
-899.90234375, 135.7421875, -42.48046875, 75.68359375, 0.0, 1622079567.7939444
-304.6875, -141.6015625, 129.39453125, 95.703125, 0.0, 1622079567.7978506
-1000.0, -379.39453125, 163.0859375, 103.02734375, 0.0, 1622079567.8017569
-214.35546875, -33.203125, -101.07421875, 8.30078125, 0.0, 1622079567.805663
-837.40234375, 164.0625, -113.76953125, 47.36328125, 0.0, 1622079567.8095694
201.171875, -207.03125, 84.9609375, 101.5625, 0.0, 1622079567.8134756
-1000.0, -383.30078125, 62.5, 21.484375, 0.0, 1622079567.8173819
-408.203125, 68.359375, -159.66796875, -69.82421875, 0.0, 1622079567.821288
-870.60546875, 118.1640625, -144.04296875, 49.8046875, 0.0, 1622079567.8251944
247.0703125, -35.15625, -60.546875, 14.16015625, 0.0, 1622079567.8291006
-1000.0, -25.390625, -42.48046875, -90.33203125, 0.0, 1622079567.8330069
-889.6484375, 79.58984375, -115.234375, -92.7734375, 0.0, 1622079567.836913
683.59375, 39.0625, -122.0703125, 54.19921875, 0.0, 1622079567.8408194
733.88671875, -99.609375, 20.01953125, 141.11328125, 0.0, 1622079567.8447256
-835.9375, -31.25, 52.24609375, -14.6484375, 0.0, 1622079567.8486319
-1000.0, 68.84765625, -101.07421875, -116.69921875, 0.0, 1622079567.852538
3.90625, 13.18359375, -117.1875, 72.265625, 0.0, 1622079567.8564444
-846.6796875, -175.29296875, 94.7265625, 285.64453125, 0.0, 1622079567.8603506
-120.60546875, -103.02734375, 66.89453125, 87.890625, 0.0, 1622079567.8642569
-1000.0, 106.93359375, -114.74609375, -131.8359375, 0.0, 1622079567.868163
-224.609375, -108.3984375, -77.1484375, 56.15234375, 0.0, 1622079567.8720694
-833.0078125, -447.75390625, 140.625, 358.3984375, 0.0, 1622079567.8759756
237.79296875, -178.22265625, 44.921875, 99.609375, 0.0, 1622079567.8798819
-1000.0, 154.78515625, -103.02734375, -119.140625, 0.0, 1622079567.883788
-641.11328125, -318.359375, -197.265625, -112.79296875, 0.0, 1622079567.8876944
994.140625, -681.640625, -181.640625, -8.30078125, 0.0, 1622079567.8916006
513.671875, -61.03515625, -55.17578125, 50.78125, 0.0, 1622079567.8955069
-1000.0, 121.09375, -36.1328125, -67.3828125, 0.0, 1622079567.899413
-952.63671875, -35.64453125, -149.4140625, -108.88671875, 0.0, 1622079567.9033194
566.40625, -12.20703125, -210.9375, 10.25390625, 0.0, 1622079567.9072256
991.2109375, 117.67578125, -105.46875, 83.984375, 0.0, 1622079567.9111319
-504.39453125, 87.40234375, -31.73828125, -22.4609375, 0.0, 1622079567.915038
-1000.0, -20.01953125, -139.16015625, -121.58203125, 0.0, 1622079567.9189444
-46.38671875, 17.08984375, -213.8671875, -22.94921875, 0.0, 1622079567.9228506
-807.12890625, 110.3515625, -103.515625, 96.19140625, 0.0, 1622079567.9267569
92.28515625, 41.50390625, -21.97265625, 15.13671875, 0.0, 1622079567.930663
-1000.0, -190.91796875, -72.75390625, -83.49609375, 0.0, 1622079567.9345694
-247.0703125, -96.19140625, -134.27734375, -35.15625, 0.0, 1622079567.9384756
-816.89453125, 145.01953125, -69.82421875, 99.12109375, 0.0, 1622079567.9423819
241.69921875, -49.31640625, -12.6953125, 14.16015625, 0.0, 1622079567.946288
-1000.0, -237.79296875, -94.7265625, -165.52734375, 0.0, 1622079567.9501944
-554.19921875, 20.01953125, -127.9296875, -62.98828125, 0.0, 1622079567.9541006
-939.94140625, 116.69921875, -94.23828125, 92.7734375, 0.0, 1622079567.9580069
562.01171875, 32.71484375, 19.04296875, 77.1484375, 0.0, 1622079567.961913
-972.16796875, 20.01953125, 49.31640625, -41.9921875, 0.0, 1622079567.9658194
-1000.0, 25.87890625, -75.68359375, -94.7265625, 0.0, 1622079567.9697256
434.08203125, 158.69140625, -103.515625, 44.43359375, 0.0, 1622079567.9736319
835.44921875, -298.33984375, -103.515625, 21.97265625, 0.0, 1622079567.977538
-720.21484375, -713.37890625, -129.8828125, -189.453125, 0.0, 1622079567.9814444
-1000.0, -112.3046875, -69.3359375, -141.11328125, 0.0, 1622079567.9853506
-99.609375, 231.4453125, -72.265625, 33.69140625, 0.0, 1622079567.9892569
-869.62890625, -405.76171875, -157.71484375, 1.46484375, 0.0, 1622079567.993163
-108.88671875, -687.01171875, -118.65234375, -139.16015625, 0.0, 1622079567.9970694
-1000.0, 57.6171875, 6.34765625, -68.359375, 0.0, 1622079568.0009756
-228.515625, 180.17578125, -71.2890625, -0.9765625, 0.0, 1622079568.0048819
-833.0078125, 39.55078125, -94.7265625, 73.2421875, 0.0, 1622079568.008788
331.54296875, 36.1328125, 36.1328125, 56.640625, 0.0, 1622079568.0126944
-1000.0, 140.13671875, 85.44921875, -17.578125, 0.0, 1622079568.0166006
-680.17578125, 163.57421875, -32.2265625, -31.25, 0.0, 1622079568.0205069
919.43359375, -329.58984375, -158.203125, -37.59765625, 0.0, 1622079568.024413
821.2890625, -287.109375, -21.97265625, 26.3671875, 0.0, 1622079568.0283194
-717.7734375, 150.87890625, 125.9765625, -2.9296875, 0.0, 1622079568.0322256
-1000.0, 97.65625, 19.04296875, -76.171875, 0.0, 1622079568.0361319
226.07421875, 90.33203125, -49.31640625, 43.9453125, 0.0, 1622079568.040038
-823.73046875, 90.8203125, 19.04296875, 125.0, 0.0, 1622079568.0439444
-128.90625, 157.71484375, 74.70703125, 20.01953125, 0.0, 1622079568.0478506
-1000.0, -132.8125, 30.76171875, -48.828125, 0.0, 1622079568.0517569
-228.515625, -318.359375, -20.99609375, 42.48046875, 0.0, 1622079568.055663
-824.21875, 57.12890625, 30.2734375, 126.953125, 0.0, 1622079568.0595694
237.79296875, 178.7109375, 97.65625, 26.3671875, 0.0, 1622079568.0634756
-1000.0, -162.59765625, 112.79296875, -13.18359375, 0.0, 1622079568.0673819
-386.71875, -485.3515625, 77.63671875, 104.98046875, 0.0, 1622079568.071288
-854.00390625, -38.0859375, -11.71875, 124.51171875, 0.0, 1622079568.0751944
367.1875, 177.24609375, 25.87890625, 55.17578125, 0.0, 1622079568.0791006
-1000.0, -110.83984375, 116.2109375, 15.13671875, 0.0, 1622079568.0830069
-849.609375, -147.4609375, 25.87890625, 11.23046875, 0.0, 1622079568.086913
719.7265625, 131.34765625, -72.265625, 61.5234375, 0.0, 1622079568.0908194
886.23046875, 111.81640625, 30.76171875, 99.609375, 0.0, 1622079568.0947256
-646.484375, 62.5, 81.0546875, -26.3671875, 0.0, 1622079568.0986319
-1000.0, 65.91796875, -0.48828125, -101.5625, 0.0, 1622079568.102538
50.78125, 101.07421875, -56.640625, -7.32421875, 0.0, 1622079568.1064444
-820.3125, 159.1796875, -5.859375, 78.125, 0.0, 1622079568.1103506
-69.82421875, -440.91796875, 145.01953125, 65.4296875, 0.0, 1622079568.1142569
-1000.0, -484.375, 90.8203125, -26.85546875, 0.0, 1622079568.118163
-230.46875, 152.34375, -123.53515625, -72.265625, 0.0, 1622079568.1220694
-826.171875, 64.94140625, -68.84765625, 73.73046875, 0.0, 1622079568.1259756
243.65234375, -146.484375, 79.1015625, 75.68359375, 0.0, 1622079568.1298819
-1000.0, 16.6015625, 23.4375, -77.63671875, 0.0, 1622079568.133788
-505.37109375, 141.6015625, -117.67578125, -89.35546875, 0.0, 1622079568.1376944
-909.1796875, 76.66015625, -90.33203125, 54.19921875, 0.0, 1622079568.1416006
476.5625, 27.83203125, 33.203125, 49.31640625, 0.0, 1622079568.1455069
-1000.0, 35.64453125, 33.203125, -94.23828125, 0.0, 1622079568.149413
-931.15234375, 155.2734375, -60.546875, -124.0234375, 0.0, 1622079568.1533194
591.796875, -322.265625, -101.5625, -2.9296875, 0.0, 1622079568.1572256
996.09375, -749.51171875, -8.30078125, 83.0078125, 0.0, 1622079568.1611319
-479.98046875, -144.04296875, 43.45703125, -24.90234375, 0.0, 1622079568.165038
-1000.0, 263.671875, -63.96484375, -114.2578125, 0.0, 1622079568.1689444
-98.14453125, -362.79296875, -137.6953125, -34.66796875, 0.0, 1622079568.1728506
-810.546875, -712.890625, -85.9375, 57.12890625, 0.0, 1622079568.1767569
154.296875, 59.08203125, 17.08984375, -6.34765625, 0.0, 1622079568.180663
-1000.0, 225.5859375, -11.71875, -102.5390625, 0.0, 1622079568.1845694
-259.27734375, 41.9921875, -78.61328125, -44.43359375, 0.0, 1622079568.1884756
-816.40625, 57.12890625, -25.390625, 84.47265625, 0.0, 1622079568.1923819
249.51171875, 172.8515625, 43.45703125, 35.15625, 0.0, 1622079568.196288
-1000.0, 222.65625, 9.765625, -101.5625, 0.0, 1622079568.2001944
-683.10546875, -323.2421875, -21.484375, 0.9765625, 0.0, 1622079568.2041006
950.68359375, -336.42578125, -24.4140625, 137.6953125, 0.0, 1622079568.2080069
635.7421875, 240.72265625, -3.90625, 62.01171875, 0.0, 1622079568.211913
-934.5703125, 114.2578125, 40.0390625, -54.19921875, 0.0, 1622079568.2158194
-1000.0, -39.55078125, -33.69140625, -77.63671875, 0.0, 1622079568.2197256
301.7578125, 129.39453125, -120.60546875, 24.90234375, 0.0, 1622079568.2236319
-883.7890625, 224.12109375, -55.6640625, 72.265625, 0.0, 1622079568.227538
-281.73828125, 46.875, 41.015625, -2.44140625, 0.0, 1622079568.2314444
-1000.0, -34.66796875, -14.6484375, -67.87109375, 0.0, 1622079568.2353506
-201.171875, 143.06640625, -111.81640625, -20.01953125, 0.0, 1622079568.2392569
-828.125, 187.5, -86.9140625, 69.3359375, 0.0, 1622079568.243163
200.1953125, 84.9609375, 50.29296875, 69.3359375, 0.0, 1622079568.2470694
-1000.0, 2.44140625, 95.703125, 42.48046875, 0.0, 1622079568.2509756
-345.21484375, 129.39453125, -84.47265625, -8.30078125, 0.0, 1622079568.2548819
-842.7734375, 119.62890625, -126.46484375, 33.203125, 0.0, 1622079568.258788
309.5703125, 259.765625, 66.40625, 97.16796875, 0.0, 1622079568.2626944
-1000.0, 342.7734375, 121.09375, 26.3671875, 0.0, 1622079568.2666006
-827.63671875, 127.44140625, -93.26171875, -87.40234375, 0.0, 1622079568.2705069
761.23046875, 120.60546875, -152.83203125, 12.6953125, 0.0, 1622079568.274413
810.05859375, 92.7734375, 5.37109375, 111.81640625, 0.0, 1622079568.2783194
-742.1875, 47.8515625, 68.84765625, -1.953125, 0.0, 1622079568.2822256
-1000.0, 57.12890625, -83.984375, -119.140625, 0.0, 1622079568.2861319
61.5234375, 77.63671875, -153.3203125, -19.04296875, 0.0, 1622079568.290038
-840.33203125, 82.03125, -14.16015625, 104.00390625, 0.0, 1622079568.2939444
-131.8359375, 46.38671875, 45.8984375, -2.44140625, 0.0, 1622079568.2978506
-1000.0, 35.15625, -63.4765625, -137.20703125, 0.0, 1622079568.3017569
-225.5859375, 78.61328125, -142.08984375, -45.8984375, 0.0, 1622079568.305663
-827.1484375, 81.54296875, -48.33984375, 139.16015625, 0.0, 1622079568.3095694
236.81640625, 45.41015625, 53.7109375, 63.96484375, 0.0, 1622079568.3134756
-1000.0, 49.8046875, -4.39453125, -105.95703125, 0.0, 1622079568.3173819
-431.15234375, 55.17578125, -90.8203125, -68.359375, 0.0, 1622079568.321288
-875.0, 51.26953125, -54.6875, 65.91796875, 0.0, 1622079568.3251944
420.41015625, 34.66796875, 36.62109375, 52.24609375, 0.0, 1622079568.3291006
-1000.0, 40.0390625, 13.18359375, -86.42578125, 0.0, 1622079568.3330069
-829.1015625, 7.8125, -36.1328125, -44.921875, 0.0, 1622079568.336913
748.046875, -5.37109375, -20.01953125, 123.53515625, 0.0, 1622079568.3408194
906.25, 23.4375, 16.11328125, 89.35546875, 0.0, 1622079568.3447256
-601.5625, 33.203125, 42.96875, -55.6640625, 0.0, 1622079568.3486319
-1000.0, -59.5703125, -6.34765625, -62.01171875, 0.0, 1622079568.352538
-8.30078125, -128.90625, -46.875, 53.7109375, 0.0, 1622079568.3564444
-813.4765625, 8.7890625, -24.4140625, 86.9140625, 0.0, 1622079568.3603506
15.625, 61.03515625, 52.24609375, -7.8125, 0.0, 1622079568.3642569
-1000.0, -86.9140625, 8.30078125, -96.6796875, 0.0, 1622079568.368163
-238.76953125, -96.6796875, -91.30859375, -35.15625, 0.0, 1622079568.3720694
-820.80078125, 63.96484375, -71.2890625, 76.66015625, 0.0, 1622079568.3759756
242.67578125, 40.52734375, 36.1328125, 27.34375, 0.0, 1622079568.3798819
-1000.0, 17.578125, 18.06640625, -103.02734375, 0.0, 1622079568.383788
-512.20703125, 55.17578125, -89.84375, -83.984375, 0.0, 1622079568.3876944
-912.109375, 75.68359375, -99.609375, 47.8515625, 0.0, 1622079568.3916006
497.0703125, 33.203125, 8.30078125, 40.0390625, 0.0, 1622079568.3955069
-1000.0, -35.64453125, 82.03125, -55.6640625, 0.0, 1622079568.399413
-1000.0, -25.390625, -35.64453125, -113.28125, 0.0, 1622079568.4033194
433.59375, 67.3828125, -84.9609375, -20.99609375, 0.0, 1622079568.4072256
990.72265625, 3.41796875, -2.9296875, 41.9921875, 0.0, 1622079568.4111319
-514.6484375, -109.86328125, 5.859375, -96.6796875, 0.0, 1622079568.415038
-1000.0, -14.6484375, -50.78125, -140.625, 0.0, 1622079568.4189444
-124.51171875, 60.546875, -110.83984375, -49.8046875, 0.0, 1622079568.4228506
-817.87109375, 37.109375, -56.15234375, 50.29296875, 0.0, 1622079568.4267569
154.296875, 14.6484375, 35.64453125, -25.390625, 0.0, 1622079568.430663
-1000.0, 37.109375, 14.16015625, -127.44140625, 0.0, 1622079568.4345694
-254.39453125, 60.05859375, -80.078125, -82.03125, 0.0, 1622079568.4384756
-814.453125, 44.43359375, -53.22265625, 74.70703125, 0.0, 1622079568.4423819
263.671875, 13.18359375, 29.78515625, 45.8984375, 0.0, 1622079568.446288
-1000.0, 16.6015625, 25.87890625, -93.26171875, 0.0, 1622079568.4501944
-651.3671875, 76.66015625, -58.10546875, -88.37890625, 0.0, 1622079568.4541006
978.02734375, -41.015625, -49.31640625, 65.4296875, 0.0, 1622079568.4580069
652.34375, -148.4375, 72.75390625, 112.79296875, 0.0, 1622079568.461913
-895.99609375, 7.8125, 78.61328125, -45.8984375, 0.0, 1622079568.4658194
-1000.0, 73.2421875, -28.3203125, -115.234375, 0.0, 1622079568.4697256
211.9140625, -19.04296875, -51.7578125, 17.578125, 0.0, 1622079568.4736319
-840.33203125, -38.0859375, 41.50390625, 102.5390625, 0.0, 1622079568.477538
-177.24609375, 51.7578125, 106.4453125, -23.92578125, 0.0, 1622079568.4814444
-1000.0, 52.734375, 14.16015625, -116.69921875, 0.0, 1622079568.4853506
-199.21875, -14.16015625, -17.08984375, 44.921875, 0.0, 1622079568.4892569
-820.3125, -5.859375, 37.59765625, 150.390625, 0.0, 1622079568.493163
207.51953125, 46.38671875, 46.38671875, -0.9765625, 0.0, 1622079568.4970694
-1000.0, 53.7109375, 25.390625, -108.3984375, 0.0, 1622079568.5009756
-343.26171875, 83.49609375, -73.2421875, -69.3359375, 0.0, 1622079568.5048819
-840.33203125, 84.47265625, -56.15234375, 64.453125, 0.0, 1622079568.508788
302.24609375, 41.50390625, 29.296875, 30.76171875, 0.0, 1622079568.5126944
-1000.0, 62.98828125, 60.05859375, -65.91796875, 0.0, 1622079568.5166006
-845.703125, 123.53515625, -8.7890625, -46.875, 0.0, 1622079568.5205069
730.95703125, 90.8203125, -89.84375, 29.78515625, 0.0, 1622079568.524413
829.1015625, 18.5546875, -7.8125, 35.15625, 0.0, 1622079568.5283194
-719.7265625, 145.01953125, 122.55859375, -1.46484375, 0.0, 1622079568.5322256
-1000.0, 356.93359375, 101.5625, 27.34375, 0.0, 1622079568.5361319
37.59765625, 162.109375, -68.359375, 11.71875, 0.0, 1622079568.540038
-842.28515625, -49.31640625, -43.45703125, 26.85546875, 0.0, 1622079568.5439444
-125.48828125, 246.09375, 115.72265625, 22.94921875, 0.0, 1622079568.5478506
-1000.0, 347.16796875, 46.875, -54.6875, 0.0, 1622079568.5517569
-225.5859375, 21.97265625, -125.48828125, -78.61328125, 0.0, 1622079568.555663
-829.1015625, 13.671875, -59.08203125, 37.59765625, 0.0, 1622079568.5595694
243.65234375, 1.46484375, 52.734375, 4.39453125, 0.0, 1622079568.5634756
-1000.0, -6.8359375, 10.7421875, -102.05078125, 0.0, 1622079568.5673819
-491.69921875, 19.04296875, -109.86328125, -86.9140625, 0.0, 1622079568.571288
-901.3671875, 51.26953125, -95.703125, 12.6953125, 0.0, 1622079568.5751944
474.609375, -121.58203125, 102.5390625, 108.88671875, 0.0, 1622079568.5791006
-1000.0, -154.296875, 129.39453125, 16.11328125, 0.0, 1622079568.5830069
-1000.0, 20.99609375, -77.63671875, -122.0703125, 0.0, 1622079568.586913
507.32421875, 37.59765625, -128.41796875, -3.41796875, 0.0, 1622079568.5908194
958.984375, 22.4609375, -15.13671875, 75.68359375, 0.0, 1622079568.5947256
-562.98828125, 6.8359375, 39.0625, -49.31640625, 0.0, 1622079568.5986319
-1000.0, 19.53125, -52.24609375, -135.25390625, 0.0, 1622079568.602538
-56.15234375, 54.19921875, -118.1640625, -37.59765625, 0.0, 1622079568.6064444
-812.5, 59.08203125, -33.69140625, 70.3125, 0.0, 1622079568.6103506
82.03125, 27.34375, 54.6875, -10.7421875, 0.0, 1622079568.6142569
-1000.0, -7.8125, -39.55078125, -141.6015625, 0.0, 1622079568.618163
-245.60546875, 95.703125, -54.6875, -24.90234375, 0.0, 1622079568.6220694
-817.87109375, 169.43359375, 54.6875, 157.2265625, 0.0, 1622079568.6259756
242.1875, 26.3671875, 52.734375, 28.3203125, 0.0, 1622079568.6298819
-1000.0, -7.32421875, -27.34375, -148.4375, 0.0, 1622079568.633788
-545.41015625, -16.11328125, -33.69140625, -37.109375, 0.0, 1622079568.6376944
-932.12890625, -43.45703125, 62.01171875, 180.17578125, 0.0, 1622079568.6416006
532.71484375, -0.48828125, 45.41015625, 67.87109375, 0.0, 1622079568.6455069
-993.1640625, 12.20703125, 35.15625, -101.07421875, 0.0, 1622079568.649413
-1000.0, 5.37109375, -16.11328125, -107.91015625, 0.0, 1622079568.6533194
364.74609375, 25.390625, -70.3125, -2.9296875, 0.0, 1622079568.6572256
-921.38671875, 28.3203125, -14.6484375, 35.64453125, 0.0, 1622079568.6611319
-365.72265625, 18.06640625, 63.4765625, -59.08203125, 0.0, 1622079568.665038
-1000.0, 58.59375, 26.3671875, -119.140625, 0.0, 1622079568.6689444
-165.0390625, 57.12890625, -58.59375, -31.25, 0.0, 1622079568.6728506
-821.77734375, 27.83203125, -50.78125, 62.98828125, 0.0, 1622079568.6767569
186.03515625, 31.73828125, 31.25, -18.5546875, 0.0, 1622079568.680663
-1000.0, -18.5546875, 100.09765625, -30.2734375, 0.0, 1622079568.6845694
-297.36328125, -30.2734375, -7.32421875, 13.671875, 0.0, 1622079568.6884756
-827.1484375, 70.3125, -89.35546875, 20.5078125, 0.0, 1622079568.6923819
266.6015625, -53.22265625, 52.24609375, 25.87890625, 0.0, 1622079568.696288
-1000.0, -208.984375, 111.328125, -45.41015625, 0.0, 1622079568.7001944
-686.03515625, -3.41796875, -30.2734375, -100.09765625, 0.0, 1622079568.7041006
935.05859375, 80.56640625, -76.171875, 4.39453125, 0.0, 1622079568.7080069
702.63671875, 21.484375, 29.78515625, 48.33984375, 0.0, 1622079568.711913
-853.02734375, 17.08984375, 62.98828125, -68.84765625, 0.0, 1622079568.7158194
-1000.0, 41.015625, -31.25, -124.51171875, 0.0, 1622079568.7197256
168.45703125, 34.1796875, -107.91015625, -24.90234375, 0.0, 1622079568.7236319
-808.59375, 49.8046875, 8.30078125, 108.3984375, 0.0, 1622079568.727538
-54.6875, 130.37109375, 133.7890625, 62.98828125, 0.0, 1622079568.7314444
-1000.0, 109.86328125, 22.94921875, -100.5859375, 0.0, 1622079568.7353506
-234.86328125, -32.2265625, -110.83984375, -84.9609375, 0.0, 1622079568.7392569
-822.265625, 343.75, 26.3671875, 124.0234375, 0.0, 1622079568.743163
241.69921875, 518.06640625, 185.05859375, 125.9765625, 0.0, 1622079568.7470694
-1000.0, 33.69140625, 34.1796875, -102.05078125, 0.0, 1622079568.7509756
-454.58984375, -12.20703125, -106.4453125, -98.6328125, 0.0, 1622079568.7548819
-883.30078125, 6.8359375, -52.24609375, 58.10546875, 0.0, 1622079568.758788
339.84375, -11.23046875, 80.56640625, 39.0625, 0.0, 1622079568.7626944
-1000.0, -1.953125, 77.63671875, -100.5859375, 0.0, 1622079568.7666006
-897.4609375, -12.20703125, -44.43359375, -130.859375, 0.0, 1622079568.7705069
672.36328125, 54.19921875, 32.71484375, 108.88671875, 0.0, 1622079568.774413
812.01171875, 47.8515625, 120.60546875, 137.6953125, 0.0, 1622079568.7783194
-750.0, -22.94921875, 62.98828125, -92.28515625, 0.0, 1622079568.7822256
-1000.0, 10.25390625, -10.25390625, -131.8359375, 0.0, 1622079568.7861319
14.16015625, 42.96875, -97.16796875, -37.109375, 0.0, 1622079568.790038
-827.63671875, 26.3671875, -51.26953125, 55.17578125, 0.0, 1622079568.7939444
-64.453125, -43.45703125, 16.11328125, -55.17578125, 0.0, 1622079568.7978506
-1000.0, 118.1640625, 20.99609375, -104.4921875, 0.0, 1622079568.8017569
-230.46875, 237.3046875, -46.875, 2.9296875, 0.0, 1622079568.805663
-820.80078125, 52.24609375, -62.01171875, 61.5234375, 0.0, 1622079568.8095694
239.2578125, -79.1015625, 23.92578125, -21.97265625, 0.0, 1622079568.8134756
-1000.0, 224.12109375, 94.7265625, -31.25, 0.0, 1622079568.8173819
-383.30078125, 542.48046875, 119.140625, 93.75, 0.0, 1622079568.821288
-848.6328125, 130.859375, -11.23046875, 84.47265625, 0.0, 1622079568.8251944
386.23046875, -88.8671875, -5.859375, 6.8359375, 0.0, 1622079568.8291006
-1000.0, 116.69921875, 105.95703125, -25.390625, 0.0, 1622079568.8330069
-1000.0, 166.015625, 16.6015625, -51.7578125, 0.0, 1622079568.836913
420.8984375, -22.4609375, -103.02734375, -31.25, 0.0, 1622079568.8408194
936.5234375, -42.96875, -11.23046875, 25.390625, 0.0, 1622079568.8447256
-594.23828125, -39.0625, 65.4296875, -77.63671875, 0.0, 1622079568.8486319
-1000.0, -38.57421875, -30.76171875, -166.9921875, 0.0, 1622079568.852538
-129.39453125, -18.06640625, -119.62890625, -81.54296875, 0.0, 1622079568.8564444
-822.75390625, -66.40625, -55.17578125, 16.11328125, 0.0, 1622079568.8603506
152.34375, 270.99609375, 126.46484375, 56.15234375, 0.0, 1622079568.8642569
-1000.0, 362.3046875, 106.93359375, -18.06640625, 0.0, 1622079568.868163
-280.2734375, -73.73046875, -98.14453125, -110.83984375, 0.0, 1622079568.8720694
-823.73046875, 36.1328125, -52.24609375, 29.296875, 0.0, 1622079568.8759756
271.97265625, 273.92578125, 80.078125, 60.546875, 0.0, 1622079568.8798819
-1000.0, 31.73828125, 39.0625, -112.3046875, 0.0, 1622079568.883788
-653.3203125, -74.21875, -73.2421875, -143.5546875, 0.0, 1622079568.8876944
994.62890625, -28.80859375, -82.51953125, 10.25390625, 0.0, 1622079568.8916006
541.9921875, -84.9609375, 15.625, 31.25, 0.0, 1622079568.8955069
-988.28125, -74.70703125, 47.8515625, -88.37890625, 0.0, 1622079568.899413
-1000.0, -44.921875, -90.8203125, -161.1328125, 0.0, 1622079568.9033194
270.99609375, 13.671875, -85.44921875, 29.78515625, 0.0, 1622079568.9072256
-900.87890625, 1.46484375, 102.05078125, 208.0078125, 0.0, 1622079568.9111319
-321.2890625, -89.84375, 60.05859375, -3.41796875, 0.0, 1622079568.915038
-1000.0, 10.7421875, -130.859375, -197.265625, 0.0, 1622079568.9189444
-201.66015625, -195.3125, -31.73828125, 62.01171875, 0.0, 1622079568.9228506
-833.0078125, -486.328125, 194.82421875, 317.3828125, 0.0, 1622079568.9267569
181.15234375, -150.390625, 76.171875, 8.7890625, 0.0, 1622079568.930663
-1000.0, 1.953125, -50.78125, -168.45703125, 0.0, 1622079568.9345694
-336.42578125, -12.20703125, -121.58203125, -95.703125, 0.0, 1622079568.9384756
-842.7734375, 16.6015625, -92.28515625, 22.4609375, 0.0, 1622079568.9423819
281.25, -18.06640625, -14.16015625, -18.06640625, 0.0, 1622079568.946288
-1000.0, -37.109375, -20.99609375, -152.83203125, 0.0, 1622079568.9501944
-590.8203125, 168.9453125, -41.50390625, -62.5, 0.0, 1622079568.9541006
-961.9140625, 178.7109375, -76.171875, 66.89453125, 0.0, 1622079568.9580069
604.00390625, -27.34375, -71.2890625, -3.41796875, 0.0, 1622079568.961913
-903.80859375, -22.4609375, 4.39453125, -111.328125, 0.0, 1622079568.9658194
-1000.0, 16.11328125, -52.734375, -155.76171875, 0.0, 1622079568.9697256
92.7734375, 15.13671875, -137.20703125, -61.03515625, 0.0, 1622079568.9736319
-828.125, 1.46484375, -77.1484375, 10.7421875, 0.0, 1622079568.977538
-111.328125, -1.953125, 56.15234375, -21.97265625, 0.0, 1622079568.9814444
-1000.0, 20.5078125, 41.9921875, -58.10546875, 0.0, 1622079568.9853506
-228.515625, 0.9765625, -121.58203125, -58.59375, 0.0, 1622079568.9892569
-825.68359375, -21.97265625, -118.1640625, 31.73828125, 0.0, 1622079568.993163
242.1875, 13.18359375, 50.78125, 18.06640625, 0.0, 1622079568.9970694
-1000.0, 39.0625, 65.4296875, -65.4296875, 0.0, 1622079569.0009756
-447.75390625, -4.8828125, -108.3984375, -88.37890625, 0.0, 1622079569.0048819
-881.8359375, -2.9296875, -134.27734375, 3.41796875, 0.0, 1622079569.008788
441.89453125, -33.203125, 52.24609375, 83.984375, 0.0, 1622079569.0126944
-1000.0, -32.71484375, 125.0, 24.4140625, 0.0, 1622079569.0166006
-931.640625, 9.765625, -73.2421875, -107.91015625, 0.0, 1622079569.0205069
620.1171875, 15.625, -131.34765625, -19.53125, 0.0, 1622079569.024413
917.96875, -20.5078125, -34.66796875, 51.7578125, 0.0, 1622079569.0283194
-609.86328125, -37.59765625, 17.578125, -63.4765625, 0.0, 1622079569.0322256
-1000.0, -14.16015625, -62.01171875, -137.20703125, 0.0, 1622079569.0361319
-35.15625, -17.08984375, -176.26953125, -73.73046875, 0.0, 1622079569.040038
-799.8046875, 47.36328125, 58.10546875, 188.4765625, 0.0, 1622079569.0439444
150.390625, 53.22265625, 205.56640625, 160.15625, 0.0, 1622079569.0478506
-1000.0, -30.2734375, -61.03515625, -147.4609375, 0.0, 1622079569.0517569
-255.37109375, -7.32421875, -161.62109375, -102.05078125, 0.0, 1622079569.055663
-812.5, 20.01953125, -17.578125, 90.33203125, 0.0, 1622079569.0595694
240.234375, -8.7890625, 61.03515625, 22.94921875, 0.0, 1622079569.0634756
-1000.0, -37.59765625, -10.25390625, -141.11328125, 0.0, 1622079569.0673819
-558.10546875, -14.6484375, -92.7734375, -112.3046875, 0.0, 1622079569.071288
-941.40625, 16.6015625, -103.515625, 26.85546875, 0.0, 1622079569.0751944
534.66796875, -14.16015625, -6.8359375, 21.97265625, 0.0, 1622079569.0791006
-1000.0, -32.71484375, 27.34375, -104.00390625, 0.0, 1622079569.0830069
-1000.0, -9.27734375, -74.70703125, -130.859375, 0.0, 1622079569.086913
465.33203125, 8.30078125, -130.37109375, -13.671875, 0.0, 1622079569.0908194
-946.2890625, -29.296875, -45.8984375, 43.45703125, 0.0, 1622079569.0947256
-410.64453125, -28.80859375, -7.32421875, -85.44921875, 0.0, 1622079569.0986319
-1000.0, -104.00390625, -13.671875, -75.68359375, 0.0, 1622079569.102538
-73.2421875, -141.11328125, 4.39453125, 81.0546875, 0.0, 1622079569.1064444
-807.12890625, -22.4609375, -20.01953125, 81.0546875, 0.0, 1622079569.1103506
114.74609375, -29.296875, -16.11328125, -70.3125, 0.0, 1622079569.1142569
-1000.0, 18.5546875, 67.3828125, -33.203125, 0.0, 1622079569.118163
-249.0234375, 68.359375, 43.45703125, 92.28515625, 0.0, 1622079569.1220694
-817.3828125, 4.39453125, -105.46875, 40.52734375, 0.0, 1622079569.1259756
239.74609375, -29.296875, -48.828125, -24.90234375, 0.0, 1622079569.1298819
-1000.0, -18.06640625, -26.85546875, -100.5859375, 0.0, 1622079569.133788
-647.4609375, 14.16015625, -120.60546875, -106.93359375, 0.0, 1622079569.1376944
986.81640625, 6.34765625, -150.390625, -7.8125, 0.0, 1622079569.1416006
601.5625, -24.90234375, -56.640625, 6.8359375, 0.0, 1622079569.1455069
-930.6640625, -41.015625, 69.82421875, -39.55078125, 0.0, 1622079569.149413
-1000.0, -30.2734375, -17.578125, -82.03125, 0.0, 1622079569.1533194
169.921875, -8.30078125, -162.59765625, -76.66015625, 0.0, 1622079569.1572256
-858.3984375, -20.01953125, -63.4765625, 27.34375, 0.0, 1622079569.1611319
-215.8203125, -20.5078125, 70.80078125, -16.11328125, 0.0, 1622079569.165038
-1000.0, -16.11328125, -16.11328125, -147.4609375, 0.0, 1622079569.1689444
-217.7734375, 5.859375, -124.51171875, -95.703125, 0.0, 1622079569.1728506
-827.1484375, 13.18359375, -64.453125, 40.52734375, 0.0, 1622079569.1767569
217.7734375, -17.08984375, 21.97265625, -24.4140625, 0.0, 1622079569.180663
-1000.0, -2.44140625, 5.859375, -140.13671875, 0.0, 1622079569.1845694
-343.75, 2.44140625, -114.74609375, -136.71875, 0.0, 1622079569.1884756
-844.23828125, 73.2421875, -8.30078125, 111.81640625, 0.0, 1622079569.1923819
470.703125, 147.94921875, 257.8125, 268.5546875, 0.0, 1622079569.196288
-1000.0, 64.94140625, 162.109375, 16.11328125, 0.0, 1622079569.2001944
-813.96484375, 87.890625, -34.66796875, -77.63671875, 0.0, 1622079569.2041006
821.2890625, 109.375, 35.64453125, 146.97265625, 0.0, 1622079569.2080069
810.546875, 88.37890625, 182.12890625, 223.6328125, 0.0, 1622079569.211913
-731.4453125, 111.328125, 167.48046875, 45.41015625, 0.0, 1622079569.2158194
-1000.0, 138.671875, 54.19921875, -23.92578125, 0.0, 1622079569.2197256
92.7734375, 158.203125, 18.06640625, 112.3046875, 0.0, 1622079569.2236319
-828.61328125, 130.37109375, 104.00390625, 193.359375, 0.0, 1622079569.227538
-114.74609375, 107.91015625, 151.85546875, 65.4296875, 0.0, 1622079569.2314444
-1000.0, 109.86328125, 94.7265625, -47.36328125, 0.0, 1622079569.2353506
-227.5390625, 64.94140625, 95.703125, 91.796875, 0.0, 1622079569.2392569
-828.125, 77.63671875, 145.01953125, 210.9375, 0.0, 1622079569.243163
238.76953125, 101.07421875, 150.390625, 62.5, 0.0, 1622079569.2470694
-1000.0, 101.5625, 127.44140625, -40.52734375, 0.0, 1622079569.2509756
-482.91015625, 129.39453125, 23.4375, -10.25390625, 0.0, 1622079569.2548819
-895.01953125, 123.046875, 7.8125, 100.5859375, 0.0, 1622079569.258788
389.16015625, 75.68359375, 92.7734375, 86.42578125, 0.0, 1622079569.2626944
-1000.0, 62.5, 134.765625, -22.4609375, 0.0, 1622079569.2666006
-988.28125, 76.171875, 21.97265625, -57.6171875, 0.0, 1622079569.2705069
485.83984375, 80.56640625, -72.265625, 50.29296875, 0.0, 1622079569.274413
987.79296875, 81.0546875, 23.4375, 96.19140625, 0.0, 1622079569.2783194
-519.53125, 66.40625, 156.73828125, 33.69140625, 0.0, 1622079569.2822256
-1000.0, 44.921875, 120.60546875, 27.34375, 0.0, 1622079569.2861319
-63.4765625, 47.36328125, -30.76171875, 32.2265625, 0.0, 1622079569.290038
-823.73046875, 54.19921875, -9.765625, 62.5, 0.0, 1622079569.2939444
15.625, 17.08984375, 151.3671875, 58.10546875, 0.0, 1622079569.2978506
-1000.0, 35.15625, 161.62109375, 20.99609375, 0.0, 1622079569.3017569
-236.81640625, 79.58984375, -33.69140625, -20.01953125, 0.0, 1622079569.305663
-824.21875, 61.03515625, -34.1796875, 70.3125, 0.0, 1622079569.3095694
243.65234375, 53.22265625, 98.14453125, 50.29296875, 0.0, 1622079569.3134756
-1000.0, 41.50390625, 80.56640625, -76.171875, 0.0, 1622079569.3173819
-566.40625, 35.64453125, -47.8515625, -78.61328125, 0.0, 1622079569.321288
933.10546875, 24.4140625, -79.1015625, 12.20703125, 0.0, 1622079569.3251944
979.98046875, 142.578125, 197.75390625, 198.2421875, 0.0, 1622079569.3291006
-449.70703125, 169.43359375, 265.625, 123.53515625, 0.0, 1622079569.3330069
-1000.0, 7.8125, -45.41015625, -141.6015625, 0.0, 1622079569.336913
257.8125, 48.828125, -88.37890625, -24.4140625, 0.0, 1622079569.3408194
-929.19921875, 160.15625, 60.05859375, 121.58203125, 0.0, 1622079569.3447256
-386.23046875, 67.87109375, 83.49609375, -23.92578125, 0.0, 1622079569.3486319
-1000.0, -20.5078125, -21.484375, -149.90234375, 0.0, 1622079569.352538
-188.4765625, 20.01953125, -85.9375, -53.22265625, 0.0, 1622079569.3564444
-832.03125, 27.83203125, -40.52734375, 53.7109375, 0.0, 1622079569.3603506
154.296875, 7.8125, 43.9453125, -19.53125, 0.0, 1622079569.3642569
-1000.0, -53.22265625, -14.16015625, -154.78515625, 0.0, 1622079569.368163
-278.3203125, 140.625, -53.7109375, -46.875, 0.0, 1622079569.3720694
-824.70703125, 250.9765625, 9.27734375, 120.60546875, 0.0, 1622079569.3759756
252.9296875, -22.94921875, 34.1796875, 8.30078125, 0.0, 1622079569.3798819
-1000.0, -46.875, -5.37109375, -154.78515625, 0.0, 1622079569.383788
-618.65234375, -19.04296875, 13.18359375, -38.57421875, 0.0, 1622079569.3876944
-992.1875, -54.6875, 99.12109375, 191.40625, 0.0, 1622079569.3916006
628.41796875, -45.8984375, 55.17578125, 62.01171875, 0.0, 1622079569.3955069
-921.875, -41.50390625, 18.06640625, -125.0, 0.0, 1622079569.399413
-1000.0, 14.6484375, 20.01953125, -71.2890625, 0.0, 1622079569.4033194
266.6015625, 51.7578125, -4.8828125, 58.10546875, 0.0, 1622079569.4072256
-858.3984375, -0.9765625, -21.97265625, 32.2265625, 0.0, 1622079569.4111319
-226.5625, -20.01953125, 46.38671875, -65.4296875, 0.0, 1622079569.415038
-1000.0, -9.765625, 0.9765625, -138.671875, 0.0, 1622079569.4189444
-220.703125, -8.30078125, -97.65625, -77.63671875, 0.0, 1622079569.4228506
-829.58984375, -10.25390625, -59.5703125, 25.87890625, 0.0, 1622079569.4267569
227.05078125, -28.80859375, 40.0390625, -27.34375, 0.0, 1622079569.430663
-1000.0, 13.18359375, 73.2421875, -96.19140625, 0.0, 1622079569.4345694
-376.953125, 41.50390625, -29.78515625, -70.80078125, 0.0, 1622079569.4384756
-851.5625, -0.9765625, -63.96484375, 2.44140625, 0.0, 1622079569.4423819
350.09765625, -9.765625, 57.6171875, 14.16015625, 0.0, 1622079569.446288
-1000.0, 12.6953125, 81.54296875, -58.59375, 0.0, 1622079569.4501944
-849.12109375, 5.859375, -45.8984375, -116.2109375, 0.0, 1622079569.4541006
737.3046875, 13.671875, -105.95703125, -20.99609375, 0.0, 1622079569.4580069
830.078125, -32.2265625, -18.5546875, 37.59765625, 0.0, 1622079569.461913
-727.05078125, -62.01171875, 60.05859375, -78.61328125, 0.0, 1622079569.4658194
-1000.0, -38.57421875, -3.90625, -144.04296875, 0.0, 1622079569.4697256
58.59375, 51.7578125, -120.60546875, -69.82421875, 0.0, 1622079569.4736319
-803.7109375, -229.4921875, 24.90234375, 123.046875, 0.0, 1622079569.477538
20.99609375, -463.8671875, 228.515625, 137.6953125, 0.0, 1622079569.4814444
-1000.0, -105.95703125, 68.84765625, -103.515625, 0.0, 1622079569.4853506
-241.69921875, 90.8203125, -92.28515625, -115.72265625, 0.0, 1622079569.4892569
-818.84765625, -219.7265625, 11.71875, 91.30859375, 0.0, 1622079569.493163
241.69921875, -312.01171875, 113.28125, 62.5, 0.0, 1622079569.4970694
-1000.0, 37.109375, 10.7421875, -130.37109375, 0.0, 1622079569.5009756
-481.93359375, 63.4765625, -92.7734375, -119.62890625, 0.0, 1622079569.5048819
-897.94921875, -34.66796875, -58.59375, 26.3671875, 0.0, 1622079569.508788
495.1171875, -47.36328125, 57.6171875, 27.34375, 0.0, 1622079569.5126944
-1000.0, 13.671875, 77.63671875, -110.83984375, 0.0, 1622079569.5166006
-1000.0, 89.35546875, -58.10546875, -152.83203125, 0.0, 1622079569.5205069
481.4453125, -509.765625, 8.30078125, 88.8671875, 0.0, 1622079569.524413
986.328125, -566.89453125, 120.1171875, 162.109375, 0.0, 1622079569.5283194
-504.8828125, 120.1171875, 43.45703125, -82.51953125, 0.0, 1622079569.5322256
-1000.0, -13.18359375, -8.7890625, -134.27734375, 0.0, 1622079569.5361319
-154.296875, -304.6875, -40.0390625, -8.7890625, 0.0, 1622079569.540038
-831.54296875, -23.4375, -22.94921875, 51.7578125, 0.0, 1622079569.5439444
106.4453125, 139.6484375, 43.45703125, -52.24609375, 0.0, 1622079569.5478506
-1000.0, 53.7109375, -2.44140625, -134.27734375, 0.0, 1622079569.5517569
-245.1171875, 62.01171875, -108.88671875, -80.078125, 0.0, 1622079569.555663
-817.87109375, 103.02734375, -62.01171875, 38.57421875, 0.0, 1622079569.5595694
242.1875, 101.5625, 6.34765625, -13.18359375, 0.0, 1622079569.5634756
-1000.0, -39.0625, 45.8984375, -65.91796875, 0.0, 1622079569.5673819
-588.37890625, -165.0390625, 55.17578125, 31.25, 0.0, 1622079569.571288
-953.61328125, -15.13671875, -49.31640625, 59.5703125, 0.0, 1622079569.5751944
523.4375, 137.20703125, -19.53125, -0.9765625, 0.0, 1622079569.5791006
-978.515625, -157.2265625, 114.2578125, -37.109375, 0.0, 1622079569.5830069
-1000.0, -393.5546875, 68.84765625, -29.78515625, 0.0, 1622079569.586913
232.421875, 9.765625, -74.21875, -21.484375, 0.0, 1622079569.5908194
-920.41015625, 119.62890625, -31.25, 32.71484375, 0.0, 1622079569.5947256
-361.328125, 13.671875, 43.9453125, -45.41015625, 0.0, 1622079569.5986319
-1000.0, 32.2265625, -32.2265625, -131.34765625, 0.0, 1622079569.602538
-179.19921875, 109.86328125, -124.51171875, -64.94140625, 0.0, 1622079569.6064444
-827.63671875, 122.0703125, -69.82421875, 29.78515625, 0.0, 1622079569.6103506
173.33984375, -216.796875, 107.421875, 44.43359375, 0.0, 1622079569.6142569
-1000.0, -201.66015625, 84.9609375, -62.98828125, 0.0, 1622079569.618163
-298.33984375, 144.04296875, -107.91015625, -110.83984375, 0.0, 1622079569.6220694
-828.61328125, 69.3359375, -83.984375, 39.55078125, 0.0, 1622079569.6259756
273.92578125, -112.3046875, 46.38671875, 54.19921875, 0.0, 1622079569.6298819
-1000.0, 0.0, 33.203125, -101.5625, 0.0, 1622079569.633788
-752.9296875, 118.65234375, -79.1015625, -131.8359375, 0.0, 1622079569.6376944
861.81640625, 86.9140625, -92.7734375, 22.4609375, 0.0, 1622079569.6416006
729.00390625, 53.22265625, -2.44140625, 60.546875, 0.0, 1622079569.6455069
-832.51953125, 50.78125, 33.69140625, -63.96484375, 0.0, 1622079569.649413
-1000.0, 101.5625, -63.4765625, -150.87890625, 0.0, 1622079569.6533194
149.4140625, 32.2265625, -48.33984375, 20.5078125, 0.0, 1622079569.6572256
-836.9140625, -133.7890625, 111.81640625, 212.40234375, 0.0, 1622079569.6611319
-153.80859375, -43.45703125, 82.03125, 4.39453125, 0.0, 1622079569.665038
-1000.0, 102.5390625, -51.7578125, -177.734375, 0.0, 1622079569.6689444
-225.5859375, -79.1015625, -20.99609375, 14.16015625, 0.0, 1622079569.6728506
-825.1953125, -147.4609375, 72.75390625, 166.015625, 0.0, 1622079569.6767569
235.83984375, 49.8046875, 44.43359375, -21.484375, 0.0, 1622079569.680663
-1000.0, 55.6640625, -14.16015625, -151.85546875, 0.0, 1622079569.6845694
-376.46484375, -28.3203125, -53.22265625, -60.05859375, 0.0, 1622079569.6884756
-850.5859375, -34.1796875, -70.3125, 72.265625, 0.0, 1622079569.6923819
360.3515625, 31.25, -32.2265625, 14.16015625, 0.0, 1622079569.696288
-1000.0, 59.5703125, 19.04296875, -111.328125, 0.0, 1622079569.7001944
-822.265625, -87.40234375, 2.44140625, -40.52734375, 0.0, 1622079569.7041006
766.6015625, -89.35546875, -53.22265625, 72.75390625, 0.0, 1622079569.7080069
844.23828125, 67.3828125, -62.98828125, 13.18359375, 0.0, 1622079569.711913
-684.08203125, 31.25, -15.13671875, -93.75, 0.0, 1622079569.7158194
-1000.0, 26.85546875, -86.42578125, -153.3203125, 0.0, 1622079569.7197256
-22.94921875, 61.5234375, -156.25, -54.19921875, 0.0, 1622079569.7236319
-815.4296875, 78.61328125, -74.70703125, 39.0625, 0.0, 1622079569.727538
27.83203125, 51.26953125, 24.90234375, -31.25, 0.0, 1622079569.7314444
-1000.0, 41.50390625, -19.04296875, -126.953125, 0.0, 1622079569.7353506
-239.74609375, 65.4296875, -117.1875, -69.82421875, 0.0, 1622079569.7392569
-821.77734375, 46.875, -112.79296875, 27.34375, 0.0, 1622079569.743163
242.67578125, 51.26953125, 39.55078125, 30.76171875, 0.0, 1622079569.7470694
-1000.0, 83.984375, 119.62890625, 5.859375, 0.0, 1622079569.7509756
-555.6640625, 61.03515625, -58.10546875, -63.96484375, 0.0, 1622079569.7548819
-940.4296875, 41.9921875, -133.7890625, -11.71875, 0.0, 1622079569.758788
548.828125, 24.4140625, 41.015625, 87.890625, 0.0, 1622079569.7626944
-985.83984375, 26.3671875, 142.578125, 28.3203125, 0.0, 1622079569.7666006
-1000.0, 35.64453125, -45.8984375, -116.69921875, 0.0, 1622079569.7705069
377.44140625, 45.41015625, -144.04296875, -34.1796875, 0.0, 1622079569.774413
-942.87109375, 52.24609375, -24.4140625, 57.12890625, 0.0, 1622079569.7783194
-401.85546875, 27.34375, 53.7109375, -63.4765625, 0.0, 1622079569.7822256
-1000.0, 20.5078125, -29.78515625, -165.0390625, 0.0, 1622079569.7861319
-145.99609375, 50.78125, -110.83984375, -74.21875, 0.0, 1622079569.790038
-820.3125, -9.765625, -15.625, 77.1484375, 0.0, 1622079569.7939444
157.2265625, -47.8515625, 55.6640625, 0.48828125, 0.0, 1622079569.7978506
-1000.0, -11.71875, -39.0625, -156.73828125, 0.0, 1622079569.8017569
-272.94921875, 18.5546875, -141.6015625, -126.46484375, 0.0, 1622079569.805663
-822.265625, -57.12890625, 37.59765625, 143.5546875, 0.0, 1622079569.8095694
240.72265625, -74.70703125, 137.20703125, 109.375, 0.0, 1622079569.8134756
-1000.0, 14.16015625, -2.9296875, -151.3671875, 0.0, 1622079569.8173819
-686.5234375, 17.578125, -101.07421875, -132.8125, 0.0, 1622079569.821288
945.80078125, 16.11328125, -105.46875, 2.9296875, 0.0, 1622079569.8251944
632.32421875, 6.8359375, 14.16015625, 12.6953125, 0.0, 1622079569.8291006
-927.24609375, 3.41796875, 61.5234375, -106.4453125, 0.0, 1622079569.8330069
-1000.0, 16.11328125, -27.34375, -145.01953125, 0.0, 1622079569.836913
245.1171875, 33.69140625, -83.49609375, -20.99609375, 0.0, 1622079569.8408194
-868.1640625, 24.90234375, -14.16015625, 56.15234375, 0.0, 1622079569.8447256
-256.8359375, 36.62109375, 7.8125, -64.94140625, 0.0, 1622079569.8486319
-1000.0, -83.0078125, 6.8359375, -78.61328125, 0.0, 1622079569.852538
-173.828125, -211.9140625, 26.3671875, 72.265625, 0.0, 1622079569.8564444
-818.84765625, -24.4140625, 9.27734375, 86.42578125, 0.0, 1622079569.8603506
192.3828125, 13.671875, 11.23046875, -65.4296875, 0.0, 1622079569.8642569
-1000.0, 76.66015625, 71.77734375, -47.8515625, 0.0, 1622079569.868163
-307.6171875, 148.92578125, 49.8046875, 62.01171875, 0.0, 1622079569.8720694
-828.61328125, 47.36328125, -94.23828125, 30.2734375, 0.0, 1622079569.8759756
292.96875, 1.953125, -20.5078125, -9.27734375, 0.0, 1622079569.8798819
-1000.0, 19.04296875, 32.2265625, -100.09765625, 0.0, 1622079569.883788
-784.1796875, 40.52734375, -46.875, -118.65234375, 0.0, 1622079569.8876944
840.33203125, 31.73828125, -76.171875, -11.71875, 0.0, 1622079569.8916006
705.56640625, -8.30078125, -18.5546875, 14.16015625, 0.0, 1622079569.8955069
-849.12109375, 85.44921875, 133.30078125, 18.06640625, 0.0, 1622079569.899413
-1000.0, 101.07421875, 68.359375, -34.1796875, 0.0, 1622079569.9033194
19.04296875, -5.859375, -127.9296875, -77.63671875, 0.0, 1622079569.9072256
-798.828125, 46.875, -4.8828125, 78.125, 0.0, 1622079569.9111319
106.93359375, 79.58984375, 127.9296875, 64.94140625, 0.0, 1622079569.915038
-1000.0, -4.8828125, -25.390625, -127.9296875, 0.0, 1622079569.9189444
-251.46484375, -21.484375, -149.4140625, -101.07421875, 0.0, 1622079569.9228506
-812.01171875, 71.2890625, -18.06640625, 111.81640625, 0.0, 1622079569.9267569
239.2578125, 74.21875, 123.53515625, 92.7734375, 0.0, 1622079569.930663
-1000.0, -30.76171875, 4.8828125, -122.0703125, 0.0, 1622079569.9345694
-457.03125, -10.25390625, -108.3984375, -132.32421875, 0.0, 1622079569.9384756
-884.765625, 45.8984375, -48.33984375, 66.40625, 0.0, 1622079569.9423819
460.9375, 56.640625, 106.93359375, 152.83203125, 0.0, 1622079569.946288
-1000.0, -26.3671875, 56.15234375, -58.59375, 0.0, 1622079569.9501944
-986.81640625, -54.19921875, -99.609375, -165.0390625, 0.0, 1622079569.9541006
566.89453125, 33.69140625, -60.546875, 27.34375, 0.0, 1622079569.9580069
872.55859375, 26.85546875, 49.8046875, 113.76953125, 0.0, 1622079569.961913
-678.7109375, -62.01171875, 8.7890625, -79.58984375, 0.0, 1622079569.9658194
-1000.0, -31.25, -71.77734375, -147.4609375, 0.0, 1622079569.9697256
-40.52734375, -3.41796875, -110.83984375, -34.66796875, 0.0, 1622079569.9736319
-818.84765625, -26.85546875, -46.38671875, 59.08203125, 0.0, 1622079569.977538
27.34375, -36.1328125, 34.1796875, -37.59765625, 0.0, 1622079569.9814444
-1000.0, -30.76171875, -7.8125, -129.8828125, 0.0, 1622079569.9853506
-239.2578125, -111.81640625, -99.609375, -72.265625, 0.0, 1622079569.9892569
-821.2890625, -75.68359375, -62.5, 51.26953125, 0.0, 1622079569.993163
243.1640625, -0.48828125, 25.390625, 4.39453125, 0.0, 1622079569.9970694
-1000.0, -30.76171875, 15.625, -124.51171875, 0.0, 1622079570.0009756
-547.36328125, -310.546875, 0.0, -39.55078125, 0.0, 1622079570.0048819
-934.08203125, -212.40234375, -28.80859375, 69.3359375, 0.0, 1622079570.008788
531.73828125, 30.76171875, -2.9296875, 8.30078125, 0.0, 1622079570.0126944
-1000.0, -28.80859375, 41.9921875, -102.5390625, 0.0, 1622079570.0166006
-1000.0, -12.6953125, -47.36328125, -145.01953125, 0.0, 1622079570.0205069
396.484375, 21.484375, -104.00390625, -29.78515625, 0.0, 1622079570.024413
-923.828125, 28.80859375, -44.43359375, 9.27734375, 0.0, 1622079570.0283194
-363.28125, -73.73046875, 95.703125, -25.87890625, 0.0, 1622079570.0322256
-1000.0, -170.41015625, 100.5859375, 3.90625, 0.0, 1622079570.0361319
-171.875, -69.82421875, -120.60546875, -36.62109375, 0.0, 1622079570.040038
-825.68359375, 88.37890625, -125.9765625, 0.9765625, 0.0, 1622079570.0439444
159.66796875, -234.375, 39.55078125, -7.32421875, 0.0, 1622079570.0478506
-1000.0, -439.453125, 38.57421875, -87.40234375, 0.0, 1622079570.0517569
-279.296875, -14.6484375, -101.07421875, -97.16796875, 0.0, 1622079570.055663
-824.21875, 79.1015625, -87.40234375, 15.625, 0.0, 1622079570.0595694
272.94921875, 7.8125, 15.13671875, 4.39453125, 0.0, 1622079570.0634756
-1000.0, -0.48828125, 8.30078125, -125.9765625, 0.0, 1622079570.0673819
-706.0546875, 26.3671875, -93.75, -145.99609375, 0.0, 1622079570.071288
937.98828125, 145.99609375, -107.421875, -21.484375, 0.0, 1622079570.0751944
622.55859375, -348.14453125, 62.98828125, 89.35546875, 0.0, 1622079570.0791006
-940.4296875, -497.0703125, 118.1640625, -15.625, 0.0, 1622079570.0830069
-1000.0, 64.94140625, -55.17578125, -155.2734375, 0.0, 1622079570.086913
218.26171875, 83.49609375, -130.37109375, -38.57421875, 0.0, 1622079570.0908194
-833.0078125, -102.05078125, 46.38671875, 136.71875, 0.0, 1622079570.0947256
-152.83203125, -61.5234375, 113.76953125, 3.90625, 0.0, 1622079570.0986319
-1000.0, 78.125, -32.71484375, -176.26953125, 0.0, 1622079570.102538
-220.21484375, 75.1953125, -109.86328125, -82.03125, 0.0, 1622079570.1064444
-822.75390625, 74.21875, -76.66015625, 41.9921875, 0.0, 1622079570.1103506
226.5625, 54.6875, 18.5546875, -24.4140625, 0.0, 1622079570.1142569
-1000.0, 74.70703125, -23.92578125, -155.76171875, 0.0, 1622079570.118163
-352.05078125, 34.66796875, -86.42578125, -83.984375, 0.0, 1622079570.1220694
-842.28515625, -56.640625, -21.97265625, 97.65625, 0.0, 1622079570.1259756
312.98828125, -11.71875, 12.6953125, 16.6015625, 0.0, 1622079570.1298819
-1000.0, 33.203125, -23.4375, -144.53125, 0.0, 1622079570.133788
-811.03515625, 13.671875, -74.21875, -108.3984375, 0.0, 1622079570.1376944
774.90234375, 16.11328125, -75.68359375, 30.76171875, 0.0, 1622079570.1416006
828.125, 48.828125, -17.08984375, 21.484375, 0.0, 1622079570.1455069
-714.84375, 39.55078125, 21.97265625, -98.14453125, 0.0, 1622079570.149413
-1000.0, -36.62109375, -65.4296875, -148.92578125, 0.0, 1622079570.1533194
37.59765625, -23.92578125, -127.44140625, -50.78125, 0.0, 1622079570.1572256
-820.80078125, 58.10546875, -55.17578125, 28.80859375, 0.0, 1622079570.1611319
-50.29296875, 33.69140625, 31.25, -56.15234375, 0.0, 1622079570.165038
-1000.0, -18.5546875, -12.20703125, -140.625, 0.0, 1622079570.1689444
-232.421875, 0.0, -110.83984375, -75.68359375, 0.0, 1622079570.1728506
-824.21875, 72.265625, -88.37890625, 26.3671875, 0.0, 1622079570.1767569
242.67578125, 41.015625, 9.27734375, -24.4140625, 0.0, 1622079570.180663
-1000.0, -310.05859375, 17.578125, -103.02734375, 0.0, 1622079570.1845694
-488.76953125, -195.80078125, -76.66015625, -84.47265625, 0.0, 1622079570.1884756
-897.94921875, 143.06640625, -96.19140625, 18.06640625, 0.0, 1622079570.1923819
436.5234375, -32.71484375, -5.859375, 14.6484375, 0.0, 1622079570.196288
-1000.0, -138.18359375, 24.4140625, -99.12109375, 0.0, 1622079570.2001944
-996.09375, 27.34375, -88.37890625, -132.8125, 0.0, 1622079570.2041006
533.203125, 122.0703125, -157.2265625, -27.83203125, 0.0, 1622079570.2080069
889.16015625, -85.9375, -39.0625, 32.71484375, 0.0, 1622079570.211913
-649.90234375, -202.1484375, 42.48046875, -81.0546875, 0.0, 1622079570.2158194
-1000.0, 43.9453125, -73.73046875, -161.1328125, 0.0, 1622079570.2197256
-109.375, 107.421875, -190.91796875, -91.30859375, 0.0, 1622079570.2236319
-824.70703125, -32.71484375, -60.546875, 70.80078125, 0.0, 1622079570.227538
95.703125, -187.5, 91.30859375, 55.6640625, 0.0, 1622079570.2314444
-1000.0, -21.484375, -33.69140625, -136.71875, 0.0, 1622079570.2353506
-246.58203125, 98.6328125, -171.875, -132.8125, 0.0, 1622079570.2392569
-819.3359375, 27.83203125, -26.85546875, 100.5859375, 0.0, 1622079570.243163
242.1875, -10.25390625, 118.65234375, 96.19140625, 0.0, 1622079570.2470694
-1000.0, 58.59375, 13.18359375, -131.8359375, 0.0, 1622079570.2509756
-600.5859375, 83.984375, -110.83984375, -126.953125, 0.0, 1622079570.2548819
-968.75, 74.21875, -113.76953125, 17.578125, 0.0, 1622079570.258788
576.171875, 40.52734375, -2.9296875, 25.390625, 0.0, 1622079570.2626944
-954.1015625, 35.64453125, 22.94921875, -99.12109375, 0.0, 1622079570.2666006
-1000.0, 73.73046875, -99.609375, -139.16015625, 0.0, 1622079570.2705069
266.6015625, -159.1796875, -61.5234375, 65.91796875, 0.0, 1622079570.274413
-916.015625, -187.98828125, 37.59765625, 144.04296875, 0.0, 1622079570.2783194
-355.95703125, 56.15234375, -3.41796875, -55.6640625, 0.0, 1622079570.2822256
-1000.0, 37.109375, -45.8984375, -116.2109375, 0.0, 1622079570.2861319
-168.9453125, 6.34765625, -97.65625, -17.08984375, 0.0, 1622079570.290038
-822.75390625, 41.50390625, -77.63671875, 58.59375, 0.0, 1622079570.2939444
187.5, 57.6171875, -1.46484375, -17.08984375, 0.0, 1622079570.2978506
-1000.0, 35.15625, -40.0390625, -110.3515625, 0.0, 1622079570.3017569
-304.19921875, 45.41015625, -128.90625, -73.73046875, 0.0, 1622079570.305663
-828.125, 66.89453125, -93.26171875, 50.29296875, 0.0, 1622079570.3095694
290.0390625, 72.265625, 15.625, 16.6015625, 0.0, 1622079570.3134756
-1000.0, -62.98828125, 55.6640625, -77.1484375, 0.0, 1622079570.3173819
-747.0703125, -177.734375, -21.484375, -55.6640625, 0.0, 1622079570.321288
874.0234375, -7.8125, -72.265625, 29.296875, 0.0, 1622079570.3251944
721.6796875, 80.56640625, -7.32421875, 30.76171875, 0.0, 1622079570.3291006
-834.9609375, -104.00390625, 117.67578125, -3.90625, 0.0, 1622079570.3330069
-1000.0, -190.4296875, 91.30859375, -5.859375, 0.0, 1622079570.336913
132.8125, 30.76171875, -76.66015625, -8.30078125, 0.0, 1622079570.3408194
-833.0078125, 75.68359375, -36.1328125, 54.19921875, 0.0, 1622079570.3447256
-135.7421875, -12.20703125, 58.10546875, -12.6953125, 0.0, 1622079570.3486319
-1000.0, -12.6953125, -11.23046875, -105.46875, 0.0, 1622079570.352538
-224.12109375, 67.87109375, -100.5859375, -48.828125, 0.0, 1622079570.3564444
-825.68359375, 104.98046875, -65.4296875, 46.875, 0.0, 1622079570.3603506
241.2109375, -216.30859375, 133.7890625, 96.6796875, 0.0, 1622079570.3642569
-1000.0, -229.00390625, 115.72265625, -10.7421875, 0.0, 1622079570.368163
-425.78125, 86.9140625, -114.74609375, -104.4921875, 0.0, 1622079570.3720694
-870.60546875, 79.1015625, -82.03125, 41.9921875, 0.0, 1622079570.3759756
388.18359375, 19.04296875, 50.29296875, 69.82421875, 0.0, 1622079570.3798819
-1000.0, 20.99609375, 44.43359375, -77.63671875, 0.0, 1622079570.383788
-890.625, 62.98828125, -57.12890625, -125.9765625, 0.0, 1622079570.3876944
665.52734375, 44.43359375, -75.1953125, 7.8125, 0.0, 1622079570.3916006
897.94921875, -0.9765625, 24.4140625, 67.3828125, 0.0, 1622079570.3955069
-637.20703125, 23.92578125, 60.05859375, -49.8046875, 0.0, 1622079570.399413
-1000.0, 31.73828125, -42.48046875, -141.11328125, 0.0, 1622079570.4033194
26.85546875, 65.91796875, -57.12890625, -2.9296875, 0.0, 1622079570.4072256
-814.453125, 179.6875, 89.84375, 177.24609375, 0.0, 1622079570.4111319
-16.6015625, 94.7265625, 88.37890625, 28.3203125, 0.0, 1622079570.415038
-1000.0, -6.34765625, -50.78125, -145.01953125, 0.0, 1622079570.4189444
-236.328125, 77.1484375, -56.640625, -5.859375, 0.0, 1622079570.4228506
-817.3828125, 99.609375, 11.23046875, 147.4609375, 0.0, 1622079570.4267569
238.28125, 12.20703125, 17.08984375, 0.0, 0.0, 1622079570.430663
-1000.0, -8.7890625, -12.6953125, -134.765625, 0.0, 1622079570.4345694
-375.48828125, 137.20703125, -75.68359375, -51.26953125, 0.0, 1622079570.4384756
-848.6328125, 134.765625, -108.3984375, 84.47265625, 0.0, 1622079570.4423819
404.78515625, -26.3671875, -78.125, 20.5078125, 0.0, 1622079570.446288
-1000.0, 0.9765625, -47.8515625, -113.76953125, 0.0, 1622079570.4501944
-952.63671875, -65.91796875, -37.59765625, -19.04296875, 0.0, 1622079570.4541006
576.66015625, -86.9140625, -67.87109375, 103.515625, 0.0, 1622079570.4580069
937.5, 0.0, -70.80078125, 38.57421875, 0.0, 1622079570.461913
-570.3125, -10.7421875, -5.37109375, -66.40625, 0.0, 1622079570.4658194
-1000.0, -3.90625, -87.890625, -141.11328125, 0.0, 1622079570.4697256
-133.30078125, 10.7421875, -174.8046875, -62.01171875, 0.0, 1622079570.4736319
-830.078125, 13.671875, -120.1171875, 45.41015625, 0.0, 1622079570.477538
96.19140625, -8.30078125, -7.8125, -16.6015625, 0.0, 1622079570.4814444
-1000.0, -8.7890625, -44.43359375, -130.37109375, 0.0, 1622079570.4853506
-262.20703125, 29.296875, -153.80859375, -78.61328125, 0.0, 1622079570.4892569
-825.1953125, 19.04296875, -134.27734375, 20.01953125, 0.0, 1622079570.493163
256.8359375, 60.05859375, 42.48046875, 55.6640625, 0.0, 1622079570.4970694
-1000.0, 152.83203125, 185.05859375, 92.7734375, 0.0, 1622079570.5009756
-662.109375, 63.4765625, -0.48828125, -28.3203125, 0.0, 1622079570.5048819
941.40625, -27.34375, -133.7890625, -46.38671875, 0.0, 1622079570.508788
740.72265625, 79.1015625, 79.58984375, 106.4453125, 0.0, 1622079570.5126944
-784.1796875, 173.828125, 226.5625, 99.12109375, 0.0, 1622079570.5166006
-1000.0, 24.4140625, -10.7421875, -105.95703125, 0.0, 1622079570.5205069
167.96875, -16.11328125, -142.08984375, -60.05859375, 0.0, 1622079570.524413
-911.62109375, -33.203125, -50.78125, 46.38671875, 0.0, 1622079570.5283194
-330.078125, -56.15234375, 21.484375, -56.15234375, 0.0, 1622079570.5322256
-1000.0, -24.4140625, -59.08203125, -158.203125, 0.0, 1622079570.5361319
-202.63671875, -9.27734375, -135.25390625, -79.58984375, 0.0, 1622079570.540038
-830.078125, -30.76171875, -34.66796875, 43.9453125, 0.0, 1622079570.5439444
203.125, -68.359375, 44.921875, -24.90234375, 0.0, 1622079570.5478506
-1000.0, -49.31640625, -43.45703125, -145.5078125, 0.0, 1622079570.5517569
-314.453125, -11.23046875, -148.4375, -112.79296875, 0.0, 1622079570.555663
-830.56640625, 33.69140625, -27.34375, 135.25390625, 0.0, 1622079570.5595694
285.64453125, 20.99609375, 82.03125, 117.67578125, 0.0, 1622079570.5634756
-1000.0, -32.71484375, -16.6015625, -134.765625, 0.0, 1622079570.5673819
-810.05859375, -19.53125, -91.796875, -118.1640625, 0.0, 1622079570.571288
804.19921875, -0.48828125, -89.84375, 39.55078125, 0.0, 1622079570.5751944
727.05078125, -30.76171875, -40.52734375, 31.73828125, 0.0, 1622079570.5791006
-892.578125, -50.29296875, -8.30078125, -106.93359375, 0.0, 1622079570.5830069
-1000.0, -17.08984375, -62.01171875, -128.90625, 0.0, 1622079570.586913
276.85546875, 10.25390625, -96.6796875, -14.16015625, 0.0, 1622079570.5908194
-845.21484375, -6.34765625, -1.953125, 41.50390625, 0.0, 1622079570.5947256
-106.93359375, -44.921875, 71.2890625, -54.6875, 0.0, 1622079570.5986319
-1000.0, -47.8515625, -13.671875, -148.92578125, 0.0, 1622079570.602538
-229.00390625, -17.08984375, -82.03125, -71.2890625, 0.0, 1622079570.6064444
-825.68359375, 3.90625, -8.30078125, 50.78125, 0.0, 1622079570.6103506
242.1875, -14.6484375, 65.91796875, -11.71875, 0.0, 1622079570.6142569
-1000.0, -90.33203125, 72.265625, -65.91796875, 0.0, 1622079570.618163
-452.1484375, -71.77734375, -15.625, -43.9453125, 0.0, 1622079570.6220694
-882.32421875, 8.7890625, -40.52734375, 34.66796875, 0.0, 1622079570.6259756
407.71484375, -35.15625, 7.32421875, -7.32421875, 0.0, 1622079570.6298819
-1000.0, 25.87890625, 203.125, 57.12890625, 0.0, 1622079570.633788
-920.8984375, 82.03125, 205.56640625, 114.74609375, 0.0, 1622079570.6376944
646.484375, 17.578125, -53.22265625, -1.953125, 0.0, 1622079570.6416006
855.46875, -17.578125, -47.36328125, -5.859375, 0.0, 1622079570.6455069
-679.19921875, -32.2265625, 214.35546875, 117.67578125, 0.0, 1622079570.649413
-1000.0, -15.13671875, 173.33984375, 76.66015625, 0.0, 1622079570.6533194
-101.5625, -1.46484375, -124.51171875, -76.66015625, 0.0, 1622079570.6572256
-831.0546875, -7.8125, -50.29296875, 25.87890625, 0.0, 1622079570.6611319
41.9921875, -73.73046875, 128.41796875, 30.2734375, 0.0, 1622079570.665038
-1000.0, -29.296875, 66.89453125, -95.703125, 0.0, 1622079570.6689444
-238.76953125, 23.4375, -101.07421875, -115.234375, 0.0, 1622079570.6728506
-821.2890625, -1.46484375, -47.8515625, 43.45703125, 0.0, 1622079570.6767569
242.67578125, -32.71484375, 88.37890625, 45.41015625, 0.0, 1622079570.680663
-1000.0, -23.92578125, 32.2265625, -122.0703125, 0.0, 1622079570.6845694
-552.734375, -1.46484375, -103.515625, -148.92578125, 0.0, 1622079570.6884756
-937.5, 4.39453125, -50.78125, 58.10546875, 0.0, 1622079570.6923819
550.78125, 10.25390625, 119.140625, 158.69140625, 0.0, 1622079570.696288
-977.5390625, -26.85546875, 68.84765625, -58.59375, 0.0, 1622079570.7001944
-1000.0, 11.71875, -95.703125, -179.19921875, 0.0, 1622079570.7041006
361.328125, -81.0546875, 7.32421875, 81.0546875, 0.0, 1622079570.7080069
-977.5390625, -154.296875, 140.625, 190.4296875, 0.0, 1622079570.711913
-458.49609375, -27.83203125, 39.55078125, -77.63671875, 0.0, 1622079570.7158194
-1000.0, 0.48828125, -45.41015625, -166.015625, 0.0, 1622079570.7197256
-160.64453125, 11.71875, -104.98046875, -72.75390625, 0.0, 1622079570.7236319
-824.21875, 2.9296875, -55.6640625, 35.15625, 0.0, 1622079570.727538
160.15625, -14.6484375, 25.390625, -34.66796875, 0.0, 1622079570.7314444
-1000.0, 6.8359375, -48.828125, -161.62109375, 0.0, 1622079570.7353506
-251.953125, -171.38671875, -54.19921875, 17.08984375, 0.0, 1622079570.7392569
-815.4296875, -190.4296875, 18.5546875, 163.57421875, 0.0, 1622079570.743163
237.3046875, -3.41796875, 15.13671875, -29.296875, 0.0, 1622079570.7470694
-1000.0, -12.6953125, 19.04296875, -138.671875, 0.0, 1622079570.7509756
-688.4765625, -15.625, -46.38671875, -98.14453125, 0.0, 1622079570.7548819
943.359375, 11.71875, -90.8203125, 2.9296875, 0.0, 1622079570.758788
637.6953125, 0.9765625, -30.2734375, -8.7890625, 0.0, 1622079570.7626944
-914.55078125, -31.73828125, 18.06640625, -125.0, 0.0, 1622079570.7666006
-1000.0, -14.16015625, -88.8671875, -161.62109375, 0.0, 1622079570.7705069
184.08203125, 2.9296875, -162.59765625, -50.29296875, 0.0, 1622079570.774413
-835.44921875, 69.82421875, -62.98828125, 35.15625, 0.0, 1622079570.7783194
-154.78515625, -142.578125, 65.91796875, -20.99609375, 0.0, 1622079570.7822256
-1000.0, -465.8203125, 41.50390625, -59.5703125, 0.0, 1622079570.7861319
-219.23828125, -167.96875, -112.3046875, -30.2734375, 0.0, 1622079570.790038
-822.75390625, 132.8125, -117.1875, 28.3203125, 0.0, 1622079570.7939444
224.12109375, -256.34765625, 67.3828125, 40.0390625, 0.0, 1622079570.7978506
-1000.0, -557.6171875, 103.02734375, -4.39453125, 0.0, 1622079570.8017569
-347.65625, -47.8515625, -92.7734375, -72.265625, 0.0, 1622079570.805663
-840.8203125, 117.1875, -125.9765625, 13.18359375, 0.0, 1622079570.8095694
349.609375, 5.859375, -1.953125, 10.25390625, 0.0, 1622079570.8134756
-1000.0, 14.16015625, 34.1796875, -117.1875, 0.0, 1622079570.8173819
-805.17578125, 76.171875, -67.3828125, -141.11328125, 0.0, 1622079570.821288
786.1328125, 140.13671875, -89.35546875, -20.01953125, 0.0, 1622079570.8251944
842.28515625, -168.9453125, 89.35546875, 121.58203125, 0.0, 1622079570.8291006
-691.89453125, -235.3515625, 125.48828125, 4.39453125, 0.0, 1622079570.8330069
-1000.0, 70.80078125, -60.05859375, -161.62109375, 0.0, 1622079570.836913
44.43359375, 81.54296875, -104.98046875, -39.0625, 0.0, 1622079570.8408194
-819.3359375, 76.171875, -7.32421875, 61.03515625, 0.0, 1622079570.8447256
-51.26953125, 41.015625, 65.4296875, -39.55078125, 0.0, 1622079570.8486319
-1000.0, 57.12890625, -20.5078125, -168.45703125, 0.0, 1622079570.852538
-232.91015625, 33.69140625, -58.59375, -59.08203125, 0.0, 1622079570.8564444
-823.2421875, -70.80078125, 58.10546875, 133.30078125, 0.0, 1622079570.8603506
242.1875, 0.0, 35.64453125, 5.859375, 0.0, 1622079570.8642569
-1000.0, 84.47265625, -52.734375, -162.59765625, 0.0, 1622079570.868163
-466.796875, -22.94921875, -59.08203125, -81.54296875, 0.0, 1622079570.8720694
-886.71875, -99.609375, -3.41796875, 95.703125, 0.0, 1622079570.8759756
406.25, 18.06640625, 6.34765625, 22.4609375, 0.0, 1622079570.8798819
-1000.0, 58.10546875, -6.34765625, -124.51171875, 0.0, 1622079570.883788
-997.0703125, -77.63671875, -66.89453125, -128.41796875, 0.0, 1622079570.8876944
502.9296875, -69.82421875, -104.98046875, -17.578125, 0.0, 1622079570.8916006
936.5234375, 46.38671875, -52.24609375, 25.87890625, 0.0, 1622079570.8955069
-594.23828125, 63.96484375, -26.3671875, -100.09765625, 0.0, 1622079570.899413
-1000.0, -120.1171875, -18.5546875, -91.796875, 0.0, 1622079570.9033194
-66.89453125, -249.51171875, -37.109375, 46.875, 0.0, 1622079570.9072256
-819.3359375, 11.23046875, -67.87109375, 49.31640625, 0.0, 1622079570.9111319
55.6640625, 81.54296875, -32.71484375, -79.58984375, 0.0, 1622079570.915038
-1000.0, 14.6484375, 94.23828125, -9.765625, 0.0, 1622079570.9189444
-241.69921875, -15.625, 51.26953125, 103.02734375, 0.0, 1622079570.9228506
-821.2890625, 50.78125, -145.01953125, 28.3203125, 0.0, 1622079570.9267569
242.1875, 38.0859375, -71.77734375, -18.5546875, 0.0, 1622079570.930663
-1000.0, 76.171875, -15.625, -86.42578125, 0.0, 1622079570.9345694
-612.79296875, 88.37890625, -122.55859375, -102.5390625, 0.0, 1622079570.9384756
-974.12109375, 61.03515625, -172.8515625, -14.16015625, 0.0, 1622079570.9423819
523.4375, 39.0625, -64.453125, 17.578125, 0.0, 1622079570.946288
-1000.0, 25.390625, -22.4609375, -92.28515625, 0.0, 1622079570.9501944
-1000.0, 27.83203125, -120.1171875, -138.18359375, 0.0, 1622079570.9541006
274.90234375, 55.6640625, -187.98828125, -40.52734375, 0.0, 1622079570.9580069
-842.28515625, -8.30078125, -47.8515625, 86.9140625, 0.0, 1622079570.961913
-187.5, -70.80078125, 81.54296875, 27.83203125, 0.0, 1622079570.9658194
-1000.0, 16.6015625, -55.17578125, -129.8828125, 0.0, 1622079570.9697256
-197.265625, 17.578125, -178.7109375, -94.23828125, 0.0, 1622079570.9736319
-816.89453125, 86.9140625, -18.5546875, 134.765625, 0.0, 1622079570.977538
233.3984375, 206.0546875, 186.5234375, 179.6875, 0.0, 1622079570.9814444
-1000.0, 92.28515625, 26.85546875, -81.54296875, 0.0, 1622079570.9853506
-323.2421875, -30.2734375, -148.4375, -117.67578125, 0.0, 1622079570.9892569
-831.0546875, 270.5078125, -17.08984375, 123.53515625, 0.0, 1622079570.993163
255.859375, 300.29296875, 102.05078125, 109.375, 0.0, 1622079570.9970694
-1000.0, -30.2734375, -13.18359375, -125.9765625, 0.0, 1622079571.0009756
-784.66796875, -11.71875, -122.0703125, -131.34765625, 0.0, 1622079571.0048819
825.68359375, -3.41796875, -141.11328125, -2.9296875, 0.0, 1622079571.008788
717.7734375, -19.53125, -43.9453125, 28.80859375, 0.0, 1622079571.0126944
-857.91015625, -37.59765625, -21.484375, -86.9140625, 0.0, 1622079571.0166006
-1000.0, -18.5546875, -121.09375, -136.23046875, 0.0, 1622079571.0205069
172.36328125, 80.56640625, -134.765625, -12.6953125, 0.0, 1622079571.024413
-844.23828125, 20.5078125, -42.96875, 54.6875, 0.0, 1622079571.0283194
-188.96484375, -57.6171875, 17.578125, -72.75390625, 0.0, 1622079571.0322256
-1000.0, -52.24609375, -39.55078125, -151.3671875, 0.0, 1622079571.0361319
-205.078125, -47.8515625, -47.36328125, 17.08984375, 0.0, 1622079571.040038
-823.73046875, -34.66796875, -13.18359375, 96.6796875, 0.0, 1622079571.0439444
225.09765625, -42.96875, 29.296875, -36.1328125, 0.0, 1622079571.0478506
-1000.0, -70.80078125, 18.06640625, -143.06640625, 0.0, 1622079571.0517569
-385.7421875, -60.05859375, -82.51953125, -119.62890625, 0.0, 1622079571.055663
-855.46875, 16.6015625, -62.5, 26.3671875, 0.0, 1622079571.0595694
376.953125, -56.15234375, -7.8125, -10.25390625, 0.0, 1622079571.0634756
-1000.0, 47.36328125, 49.31640625, -52.24609375, 0.0, 1622079571.0673819
-814.453125, 199.21875, 76.171875, 47.8515625, 0.0, 1622079571.071288
790.52734375, 18.06640625, -39.55078125, 40.0390625, 0.0, 1622079571.0751944
813.96484375, -48.33984375, -39.0625, 10.25390625, 0.0, 1622079571.0791006
-724.609375, -20.01953125, 61.03515625, -53.7109375, 0.0, 1622079571.0830069
-1000.0, -61.5234375, 5.37109375, -91.30859375, 0.0, 1622079571.086913
17.578125, -48.828125, -107.421875, -45.41015625, 0.0, 1622079571.0908194
-820.80078125, -18.06640625, -32.71484375, 34.66796875, 0.0, 1622079571.0947256
-34.66796875, -46.875, 37.59765625, -35.15625, 0.0, 1622079571.0986319
-1000.0, -51.7578125, -33.69140625, -143.5546875, 0.0, 1622079571.102538
-233.88671875, -17.08984375, -93.75, -89.84375, 0.0, 1622079571.1064444
-823.73046875, 9.27734375, -54.19921875, 23.92578125, 0.0, 1622079571.1103506
243.1640625, -141.6015625, 79.1015625, 33.203125, 0.0, 1622079571.1142569
-1000.0, -166.015625, 71.77734375, -65.91796875, 0.0, 1622079571.118163
-498.53515625, -9.765625, -81.0546875, -112.3046875, 0.0, 1622079571.1220694
-904.78515625, 16.11328125, -83.0078125, 18.5546875, 0.0, 1622079571.1259756
480.46875, -14.6484375, 17.08984375, 30.2734375, 0.0, 1622079571.1298819
-1000.0, -30.76171875, 31.25, -97.16796875, 0.0, 1622079571.133788
-1000.0, -13.18359375, -78.61328125, -148.4375, 0.0, 1622079571.1376944
495.1171875, 11.23046875, -96.6796875, 9.765625, 0.0, 1622079571.1416006
988.28125, 8.7890625, -1.953125, 119.140625, 0.0, 1622079571.1455069
-507.32421875, -20.01953125, -11.23046875, -53.22265625, 0.0, 1622079571.149413
-1000.0, -14.6484375, -125.9765625, -165.0390625, 0.0, 1622079571.1533194
-116.69921875, -32.2265625, -140.13671875, -9.27734375, 0.0, 1622079571.1572256
-823.2421875, -117.67578125, 8.30078125, 166.9921875, 0.0, 1622079571.1611319
96.19140625, -82.51953125, 27.83203125, 9.27734375, 0.0, 1622079571.165038
-1000.0, -20.01953125, -72.75390625, -150.87890625, 0.0, 1622079571.1689444
-245.1171875, 1.953125, -118.1640625, -57.12890625, 0.0, 1622079571.1728506
-816.89453125, 20.99609375, -75.1953125, 75.68359375, 0.0, 1622079571.1767569
241.69921875, -7.8125, -30.2734375, -0.48828125, 0.0, 1622079571.180663
-1000.0, -22.94921875, -44.921875, -122.55859375, 0.0, 1622079571.1845694
-543.9453125, 62.01171875, -75.1953125, -82.51953125, 0.0, 1622079571.1884756
-937.5, 76.171875, -84.47265625, 48.33984375, 0.0, 1622079571.1923819
577.63671875, -7.32421875, -32.71484375, 30.2734375, 0.0, 1622079571.196288
-979.98046875, -31.25, 4.8828125, -116.69921875, 0.0, 1622079571.2001944
-1000.0, -0.9765625, 0.9765625, -45.8984375, 0.0, 1622079571.2041006
434.08203125, 27.83203125, -25.390625, 100.5859375, 0.0, 1622079571.2080069
-934.5703125, -13.18359375, -60.05859375, 33.203125, 0.0, 1622079571.211913
-373.046875, -41.015625, 3.41796875, -80.078125, 0.0, 1622079571.2158194
-1000.0, -12.6953125, -29.296875, -129.39453125, 0.0, 1622079571.2197256
-195.3125, 13.18359375, -106.93359375, -60.05859375, 0.0, 1622079571.2236319
-831.0546875, 7.8125, -56.640625, 29.78515625, 0.0, 1622079571.227538
199.70703125, -11.23046875, 42.96875, -26.85546875, 0.0, 1622079571.2314444
-1000.0, -15.13671875, 17.08984375, -132.32421875, 0.0, 1622079571.2353506
-344.7265625, 6.34765625, -91.796875, -100.09765625, 0.0, 1622079571.2392569
-843.26171875, 12.20703125, -69.82421875, 24.90234375, 0.0, 1622079571.243163
319.82421875, -8.30078125, 63.96484375, 15.625, 0.0, 1622079571.2470694
-1000.0, -19.53125, 42.48046875, -94.7265625, 0.0, 1622079571.2509756
-761.71875, 12.20703125, -78.61328125, -107.91015625, 0.0, 1622079571.2548819
806.640625, -5.37109375, -130.37109375, -13.671875, 0.0, 1622079571.258788
887.20703125, 58.10546875, 4.39453125, 87.40234375, 0.0, 1622079571.2626944
-622.55859375, 186.03515625, 159.66796875, 64.94140625, 0.0, 1622079571.2666006
-1000.0, 64.453125, -6.8359375, -82.03125, 0.0, 1622079571.2705069
34.1796875, -46.38671875, -158.203125, -64.453125, 0.0, 1622079571.274413
-792.96875, 107.421875, 33.69140625, 136.23046875, 0.0, 1622079571.2783194
115.234375, 190.4296875, 200.68359375, 109.86328125, 0.0, 1622079571.2822256
-1000.0, -17.578125, 8.30078125, -123.53515625, 0.0, 1622079571.2861319
-252.44140625, -38.57421875, -121.09375, -74.70703125, 0.0, 1622079571.290038
-812.01171875, 30.2734375, -53.7109375, 64.453125, 0.0, 1622079571.2939444
230.46875, -2.9296875, 18.06640625, -11.71875, 0.0, 1622079571.2978506
-1000.0, -61.03515625, -24.90234375, -148.92578125, 0.0, 1622079571.3017569
-458.984375, -54.6875, -125.9765625, -128.90625, 0.0, 1622079571.305663
-885.7421875, 301.26953125, -13.18359375, 97.65625, 0.0, 1622079571.3095694
385.7421875, 229.4921875, 106.4453125, 91.796875, 0.0, 1622079571.3134756
-1000.0, -106.93359375, 6.34765625, -137.20703125, 0.0, 1622079571.3173819
-917.48046875, -33.203125, -57.12890625, -133.30078125, 0.0, 1622079571.321288
627.9296875, 22.4609375, -19.53125, 33.203125, 0.0, 1622079571.3251944
899.4140625, -41.015625, 27.83203125, 46.875, 0.0, 1622079571.3291006
-636.71875, -83.49609375, 45.8984375, -82.03125, 0.0, 1622079571.3330069
-1000.0, -64.94140625, -15.625, -143.06640625, 0.0, 1622079571.336913
-10.7421875, -33.69140625, -94.23828125, -48.33984375, 0.0, 1622079571.3408194
-819.3359375, -32.2265625, -55.6640625, 47.8515625, 0.0, 1622079571.3447256
-9.27734375, -72.265625, -4.8828125, -63.96484375, 0.0, 1622079571.3486319
-1000.0, -69.82421875, 20.01953125, -95.21484375, 0.0, 1622079571.352538
-235.83984375, -62.01171875, 30.76171875, 62.01171875, 0.0, 1622079571.3564444
-824.21875, -64.453125, -34.1796875, 73.73046875, 0.0, 1622079571.3603506
243.65234375, -24.4140625, -3.41796875, -45.41015625, 0.0, 1622079571.3642569
-1000.0, -168.9453125, 71.77734375, -80.56640625, 0.0, 1622079571.368163
-564.94140625, -202.63671875, -10.25390625, -48.33984375, 0.0, 1622079571.3720694
-942.3828125, -16.11328125, -105.95703125, -8.30078125, 0.0, 1622079571.3759756
512.6953125, -13.18359375, -7.8125, 2.9296875, 0.0, 1622079571.3798819
-1000.0, -123.046875, 54.19921875, -79.1015625, 0.0, 1622079571.383788
-1000.0, -104.00390625, -37.59765625, -123.046875, 0.0, 1622079571.3876944
400.87890625, 2.9296875, -110.83984375, -39.55078125, 0.0, 1622079571.3916006
-949.70703125, 7.32421875, -39.55078125, 21.484375, 0.0, 1622079571.3955069
-409.66796875, -240.72265625, 90.33203125, -20.01953125, 0.0, 1622079571.399413
-1000.0, -235.83984375, 35.15625, -97.65625, 0.0, 1622079571.4033194
-154.78515625, 27.34375, -108.88671875, -73.2421875, 0.0, 1622079571.4072256
-826.171875, 6.34765625, -63.96484375, 36.62109375, 0.0, 1622079571.4111319
131.34765625, -36.62109375, 46.875, -30.76171875, 0.0, 1622079571.415038
-1000.0, -8.30078125, 9.27734375, -143.06640625, 0.0, 1622079571.4189444
-264.6484375, 37.59765625, -104.98046875, -96.19140625, 0.0, 1622079571.4228506
-821.77734375, 23.92578125, -52.24609375, 52.24609375, 0.0, 1622079571.4267569
269.04296875, -33.203125, 42.48046875, 21.484375, 0.0, 1622079571.430663
-1000.0, -39.55078125, 13.671875, -111.328125, 0.0, 1622079571.4345694
-661.1328125, 38.57421875, -85.9375, -131.8359375, 0.0, 1622079571.4384756
970.703125, -57.12890625, -59.5703125, 55.17578125, 0.0, 1622079571.4423819
654.78515625, -258.30078125, 85.9375, 147.94921875, 0.0, 1622079571.446288
-894.04296875, -83.984375, 70.3125, -46.38671875, 0.0, 1622079571.4501944
-1000.0, 29.296875, -56.640625, -144.53125, 0.0, 1622079571.4541006
224.609375, 53.22265625, -46.38671875, 23.92578125, 0.0, 1622079571.4580069
-875.48828125, 58.59375, 60.546875, 151.85546875, 0.0, 1622079571.461913
-262.6953125, -3.41796875, 50.29296875, -32.71484375, 0.0, 1622079571.4658194
-1000.0, -1.953125, -15.625, -149.4140625, 0.0, 1622079571.4697256
-212.890625, 29.296875, -76.171875, -47.36328125, 0.0, 1622079571.4736319
-823.73046875, 39.55078125, -30.76171875, 66.40625, 0.0, 1622079571.477538
220.21484375, 17.08984375, 48.33984375, -15.625, 0.0, 1622079571.4814444
-1000.0, -21.97265625, -4.8828125, -162.109375, 0.0, 1622079571.4853506
-260.7421875, 154.78515625, 38.0859375, 28.80859375, 0.0, 1622079571.4892569
-810.05859375, 181.15234375, 80.078125, 195.3125, 0.0, 1622079571.493163
270.01953125, -23.4375, 20.01953125, -7.32421875, 0.0, 1622079571.4970694
-1000.0, -20.01953125, 46.875, -114.74609375, 0.0, 1622079571.5009756
-806.640625, 37.59765625, 0.48828125, -73.2421875, 0.0, 1622079571.5048819
799.8046875, 23.4375, -60.546875, 18.06640625, 0.0, 1622079571.508788
752.9296875, -34.1796875, -16.6015625, 24.4140625, 0.0, 1622079571.5126944
-799.8046875, -29.78515625, 38.57421875, -81.54296875, 0.0, 1622079571.5166006
-1000.0, -9.27734375, -61.5234375, -137.6953125, 0.0, 1622079571.5205069
32.2265625, 3.90625, -141.11328125, -34.66796875, 0.0, 1622079571.524413
-823.2421875, -11.71875, -65.4296875, 33.69140625, 0.0, 1622079571.5283194
-57.12890625, 34.66796875, 107.91015625, 13.671875, 0.0, 1622079571.5322256
-1000.0, 89.84375, 147.4609375, 26.85546875, 0.0, 1622079571.5361319
-231.93359375, -32.2265625, -55.6640625, -24.4140625, 0.0, 1622079571.540038
-825.1953125, 42.96875, -107.421875, -5.37109375, 0.0, 1622079571.5439444
243.65234375, -201.66015625, 94.23828125, 66.40625, 0.0, 1622079571.5478506
-1000.0, -592.7734375, 150.87890625, 35.64453125, 0.0, 1622079571.5517569
-501.953125, -147.94921875, -78.125, -91.796875, 0.0, 1622079571.555663
-905.76171875, 71.77734375, -131.34765625, -5.37109375, 0.0, 1622079571.5595694
476.5625, 55.17578125, 20.99609375, 41.9921875, 0.0, 1622079571.5634756
-1000.0, 63.96484375, 63.4765625, -86.42578125, 0.0, 1622079571.5673819
-1000.0, 18.5546875, -67.87109375, -154.78515625, 0.0, 1622079571.571288
465.33203125, 26.3671875, -102.5390625, -49.8046875, 0.0, 1622079571.5751944
-964.84375, 113.28125, 41.50390625, 93.26171875, 0.0, 1622079571.5791006
-429.6875, 99.12109375, 77.1484375, -7.32421875, 0.0, 1622079571.5830069
-1000.0, -7.32421875, -66.40625, -167.96875, 0.0, 1622079571.586913
-119.62890625, 1.953125, -122.55859375, -64.94140625, 0.0, 1622079571.5908194
-828.61328125, -12.20703125, -35.15625, 46.875, 0.0, 1622079571.5947256
46.875, -6.8359375, 47.36328125, -32.71484375, 0.0, 1622079571.5986319
-1000.0, 5.859375, -17.08984375, -147.4609375, 0.0, 1622079571.602538
-238.28125, 12.6953125, -77.63671875, -64.94140625, 0.0, 1622079571.6064444
-821.2890625, 5.37109375, 13.671875, 105.95703125, 0.0, 1622079571.6103506
243.1640625, -24.90234375, 78.125, 41.015625, 0.0, 1622079571.6142569
-1000.0, 17.578125, -2.9296875, -132.32421875, 0.0, 1622079571.618163
-555.6640625, -81.54296875, -22.94921875, -50.78125, 0.0, 1622079571.6220694
-937.98828125, -277.34375, 84.47265625, 192.3828125, 0.0, 1622079571.6259756
519.04296875, -112.3046875, 46.875, 79.58984375, 0.0, 1622079571.6298819
-1000.0, 7.8125, 5.37109375, -124.51171875, 0.0, 1622079571.633788
-1000.0, -29.78515625, 12.20703125, -87.40234375, 0.0, 1622079571.6376944
429.6875, -12.20703125, 8.7890625, 57.12890625, 0.0, 1622079571.6416006
-930.17578125, 32.2265625, -5.37109375, 46.875, 0.0, 1622079571.6455069
-369.140625, 12.6953125, 34.1796875, -70.3125, 0.0, 1622079571.649413
-1000.0, 8.7890625, -25.87890625, -145.99609375, 0.0, 1622079571.6533194
-184.5703125, 17.578125, -106.93359375, -67.87109375, 0.0, 1622079571.6572256
-826.171875, 0.9765625, -31.73828125, 52.734375, 0.0, 1622079571.6611319
192.3828125, 62.01171875, 23.4375, -39.0625, 0.0, 1622079571.665038
-1000.0, -277.83203125, 104.00390625, -29.78515625, 0.0, 1622079571.6689444
-292.48046875, -394.53125, 57.6171875, 57.12890625, 0.0, 1622079571.6728506
-825.1953125, 14.6484375, -83.984375, 34.1796875, 0.0, 1622079571.6767569
263.671875, 32.71484375, 19.53125, 0.9765625, 0.0, 1622079571.680663
-1000.0, -84.47265625, 73.73046875, -65.4296875, 0.0, 1622079571.6845694
-703.125, -15.625, -49.31640625, -83.49609375, 0.0, 1622079571.6884756
926.7578125, 79.58984375, -110.83984375, -23.92578125, 0.0, 1622079571.6923819
677.734375, 15.13671875, -17.08984375, 19.53125, 0.0, 1622079571.696288
-881.8359375, 0.48828125, 27.83203125, -68.359375, 0.0, 1622079571.7001944
-1000.0, 41.9921875, -61.5234375, -141.11328125, 0.0, 1622079571.7041006
176.7578125, 52.24609375, -122.0703125, -44.921875, 0.0, 1622079571.7080069
-829.58984375, 33.69140625, -36.62109375, 45.41015625, 0.0, 1622079571.711913
-138.671875, 17.578125, 52.734375, -40.52734375, 0.0, 1622079571.7158194
-1000.0, 25.87890625, -12.6953125, -138.18359375, 0.0, 1622079571.7197256
-223.6328125, 49.31640625, -94.7265625, -82.03125, 0.0, 1622079571.7236319
-824.70703125, -6.34765625, -17.578125, 62.01171875, 0.0, 1622079571.727538
232.421875, -46.38671875, 63.4765625, 10.25390625, 0.0, 1622079571.7314444
-1000.0, 18.5546875, 16.11328125, -116.69921875, 0.0, 1622079571.7353506
-393.06640625, 24.4140625, -80.56640625, -108.3984375, 0.0, 1622079571.7392569
-857.421875, 98.6328125, 15.625, 108.88671875, 0.0, 1622079571.743163
394.04296875, 118.65234375, 167.96875, 171.38671875, 0.0, 1622079571.7470694
-1000.0, 20.5078125, 76.66015625, -68.84765625, 0.0, 1622079571.7509756
-902.34375, -7.8125, -64.94140625, -142.578125, 0.0, 1622079571.7548819
676.7578125, 119.140625, -2.44140625, 72.75390625, 0.0, 1622079571.758788
844.23828125, 131.8359375, 122.0703125, 154.78515625, 0.0, 1622079571.7626944
-708.984375, -5.859375, 46.875, -69.3359375, 0.0, 1622079571.7666006
-1000.0, -33.203125, -71.2890625, -161.1328125, 0.0, 1622079571.7705069
23.92578125, 182.6171875, -43.45703125, 35.15625, 0.0, 1622079571.774413
-824.21875, 221.19140625, 51.26953125, 147.4609375, 0.0, 1622079571.7783194
-58.10546875, -30.2734375, 49.31640625, -46.38671875, 0.0, 1622079571.7822256
-1000.0, -29.296875, 4.39453125, -132.32421875, 0.0, 1622079571.7861319
-231.4453125, 46.38671875, -56.640625, -23.92578125, 0.0, 1622079571.790038
-826.171875, 13.671875, -47.36328125, 62.5, 0.0, 1622079571.7939444
243.65234375, -44.921875, 31.25, -20.01953125, 0.0, 1622079571.7978506
-1000.0, -38.0859375, 21.97265625, -119.62890625, 0.0, 1622079571.8017569
-520.99609375, -14.6484375, -81.0546875, -102.05078125, 0.0, 1622079571.805663
-916.50390625, 2.9296875, -88.37890625, 24.90234375, 0.0, 1622079571.8095694
479.4921875, -46.38671875, -19.53125, 11.71875, 0.0, 1622079571.8134756
-1000.0, -28.3203125, 50.29296875, -45.41015625, 0.0, 1622079571.8173819
-1000.0, 73.73046875, 37.59765625, -5.37109375, 0.0, 1622079571.821288
474.609375, 27.83203125, -82.03125, 19.04296875, 0.0, 1622079571.8251944
962.890625, -49.8046875, -82.51953125, 11.71875, 0.0, 1622079571.8291006
-545.41015625, -14.6484375, 67.3828125, 1.46484375, 0.0, 1622079571.8330069
-1000.0, 20.01953125, 26.3671875, -37.59765625, 0.0, 1622079571.836913
-142.578125, -23.4375, -161.62109375, -60.546875, 0.0, 1622079571.8408194
-830.56640625, -31.73828125, -101.5625, 35.15625, 0.0, 1622079571.8447256
101.07421875, -15.13671875, 32.2265625, 2.9296875, 0.0, 1622079571.8486319
-1000.0, -16.6015625, -25.390625, -99.609375, 0.0, 1622079571.852538
-247.0703125, -2.9296875, -134.27734375, -89.35546875, 0.0, 1622079571.8564444
-818.359375, -1.46484375, -130.859375, 22.4609375, 0.0, 1622079571.8603506
279.296875, -14.6484375, 17.578125, 80.078125, 0.0, 1622079571.8642569
-1000.0, -17.08984375, 52.734375, -32.2265625, 0.0, 1622079571.868163
-674.8046875, -27.83203125, -127.9296875, -129.8828125, 0.0, 1622079571.8720694
966.796875, 3.41796875, -126.953125, 8.7890625, 0.0, 1622079571.8759756
621.09375, -14.6484375, -7.8125, 41.9921875, 0.0, 1622079571.8798819
-939.94140625, -41.015625, 19.04296875, -90.33203125, 0.0, 1622079571.883788
-1000.0, -20.5078125, -61.03515625, -134.765625, 0.0, 1622079571.8876944
280.2734375, 2.9296875, -97.16796875, -10.25390625, 0.0, 1622079571.8916006
-871.58203125, -4.39453125, -15.625, 66.40625, 0.0, 1622079571.8955069
-254.8828125, -21.97265625, 48.828125, -36.1328125, 0.0, 1622079571.899413
-1000.0, -56.640625, -38.57421875, -145.99609375, 0.0, 1622079571.9033194
-195.80078125, 57.12890625, -53.7109375, 2.9296875, 0.0, 1622079571.9072256
-824.70703125, 214.84375, 104.4921875, 233.88671875, 0.0, 1622079571.9111319
195.3125, 37.109375, 85.9375, 51.7578125, 0.0, 1622079571.915038
-1000.0, -62.5, -38.0859375, -153.3203125, 0.0, 1622079571.9189444
-320.3125, -46.38671875, -54.6875, -48.828125, 0.0, 1622079571.9228506
-834.47265625, -72.75390625, -4.39453125, 110.3515625, 0.0, 1622079571.9267569
276.85546875, -60.05859375, 16.11328125, 13.671875, 0.0, 1622079571.930663
-1000.0, -56.15234375, 1.953125, -120.1171875, 0.0, 1622079571.9345694
-740.234375, 22.94921875, -82.51953125, -114.2578125, 0.0, 1622079571.9384756
858.88671875, 42.96875, -90.8203125, 7.8125, 0.0, 1622079571.9423819
781.25, -25.390625, 7.32421875, 26.85546875, 0.0, 1622079571.946288
-823.2421875, -84.9609375, 32.2265625, -94.23828125, 0.0, 1622079571.9501944
-1000.0, 160.64453125, 44.43359375, -32.71484375, 0.0, 1622079571.9541006
367.67578125, 260.7421875, 12.6953125, 90.8203125, 0.0, 1622079571.9580069
-852.5390625, -37.59765625, -37.59765625, 45.8984375, 0.0, 1622079571.961913
-207.51953125, -65.4296875, 44.43359375, -45.8984375, 0.0, 1622079571.9658194
-1000.0, 35.15625, 20.5078125, -102.5390625, 0.0, 1622079571.9697256
-223.14453125, 8.7890625, -108.88671875, -61.03515625, 0.0, 1622079571.9736319
-830.56640625, -56.640625, -93.26171875, 30.76171875, 0.0, 1622079571.977538
242.67578125, -35.64453125, 24.90234375, -8.30078125, 0.0, 1622079571.9814444
-1000.0, -33.69140625, 10.25390625, -119.62890625, 0.0, 1622079571.9853506
-444.82421875, -25.87890625, -82.03125, -103.02734375, 0.0, 1622079571.9892569
-878.90625, -77.1484375, -95.21484375, 10.25390625, 0.0, 1622079571.993163
439.94140625, 86.9140625, 50.78125, 47.36328125, 0.0, 1622079571.9970694
-1000.0, 325.68359375, 127.44140625, -20.5078125, 0.0, 1622079572.0009756
-962.890625, 56.640625, -48.33984375, -108.3984375, 0.0, 1622079572.0048819
494.140625, -111.81640625, -123.046875, -32.71484375, 0.0, 1622079572.008788
-918.45703125, 78.125, 24.90234375, 78.125, 0.0, 1622079572.0126944
-338.37890625, 401.85546875, 139.16015625, 38.0859375, 0.0, 1622079572.0166006
-1000.0, 149.90234375, 5.37109375, -95.703125, 0.0, 1622079572.0205069
-94.23828125, -123.046875, -107.421875, -63.4765625, 0.0, 1622079572.024413
-818.359375, 72.75390625, -2.44140625, 91.796875, 0.0, 1622079572.0283194
43.9453125, 61.5234375, 68.84765625, 12.6953125, 0.0, 1622079572.0322256
-1000.0, -118.1640625, -36.62109375, -141.6015625, 0.0, 1622079572.0361319
-239.2578125, -92.28515625, -125.9765625, -86.9140625, 0.0, 1622079572.040038
-821.2890625, -41.50390625, -58.59375, 57.12890625, 0.0, 1622079572.0439444
243.1640625, -79.58984375, 15.625, 18.06640625, 0.0, 1622079572.0478506
-1000.0, -105.46875, -22.94921875, -117.1875, 0.0, 1622079572.0517569
-570.3125, -63.96484375, -119.140625, -103.515625, 0.0, 1622079572.055663
-946.2890625, -181.15234375, -76.66015625, 78.61328125, 0.0, 1622079572.0595694
518.5546875, -185.05859375, 44.921875, 80.56640625, 0.0, 1622079572.0634756
-1000.0, -70.80078125, 35.64453125, -92.28515625, 0.0, 1622079572.0673819
-1000.0, -47.8515625, -37.59765625, -101.07421875, 0.0, 1622079572.071288
454.58984375, -37.109375, -63.96484375, 32.2265625, 0.0, 1622079572.0751944
-955.56640625, -48.33984375, -5.859375, 64.453125, 0.0, 1622079572.0791006
-424.31640625, -77.1484375, 33.203125, -55.6640625, 0.0, 1622079572.0830069
-1000.0, -23.92578125, -21.484375, -104.98046875, 0.0, 1622079572.086913
-99.12109375, 26.3671875, -73.2421875, -6.34765625, 0.0, 1622079572.0908194
-810.546875, -22.94921875, -28.3203125, 71.2890625, 0.0, 1622079572.0947256
150.390625, -77.1484375, 18.06640625, -27.34375, 0.0, 1622079572.0986319
-1000.0, 6.8359375, 13.671875, -64.94140625, 0.0, 1622079572.102538
-274.90234375, 82.03125, -40.52734375, 11.23046875, 0.0, 1622079572.1064444
-822.75390625, 0.9765625, -77.1484375, 57.12890625, 0.0, 1622079572.1103506
241.69921875, -83.0078125, -11.71875, 1.46484375, 0.0, 1622079572.1142569
-1000.0, 66.40625, 63.4765625, -32.2265625, 0.0, 1622079572.118163
-683.10546875, 190.91796875, 20.99609375, 12.6953125, 0.0, 1622079572.1220694
943.359375, -11.23046875, -102.05078125, 19.04296875, 0.0, 1622079572.1259756
658.69140625, -85.44921875, -43.9453125, 1.953125, 0.0, 1622079572.1298819
-891.11328125, -33.203125, 77.63671875, -25.87890625, 0.0, 1622079572.133788
-1000.0, -2.9296875, 9.765625, -50.78125, 0.0, 1622079572.1376944
196.2890625, -47.36328125, -112.79296875, -33.203125, 0.0, 1622079572.1416006
-875.9765625, -81.54296875, -54.6875, 39.0625, 0.0, 1622079572.1455069
-257.8125, 16.6015625, 86.42578125, 30.2734375, 0.0, 1622079572.149413
-1000.0, 45.41015625, 30.2734375, -52.734375, 0.0, 1622079572.1533194
-214.84375, -53.22265625, -137.20703125, -67.3828125, 0.0, 1622079572.1572256
-829.58984375, -53.22265625, -85.44921875, 51.26953125, 0.0, 1622079572.1611319
221.6796875, -75.68359375, 12.20703125, 0.9765625, 0.0, 1622079572.165038
-1000.0, -65.4296875, -27.83203125, -111.328125, 0.0, 1622079572.1689444
-363.28125, -16.11328125, -108.3984375, -84.9609375, 0.0, 1622079572.1728506
-847.65625, -61.5234375, -95.21484375, 44.921875, 0.0, 1622079572.1767569
332.51953125, -112.3046875, -7.32421875, 42.48046875, 0.0, 1622079572.180663
-1000.0, -68.359375, 13.671875, -79.1015625, 0.0, 1622079572.1845694
-789.0625, -5.37109375, -90.8203125, -110.83984375, 0.0, 1622079572.1884756
826.66015625, -42.96875, -74.21875, 64.453125, 0.0, 1622079572.1923819
752.9296875, -286.1328125, 79.1015625, 172.36328125, 0.0, 1622079572.196288
-789.0625, -170.8984375, 66.89453125, -17.578125, 0.0, 1622079572.2001944
-1000.0, -16.6015625, -76.66015625, -142.08984375, 0.0, 1622079572.2041006
22.94921875, 2.9296875, -72.265625, 41.015625, 0.0, 1622079572.2080069
-831.0546875, 31.25, 65.4296875, 173.828125, 0.0, 1622079572.211913
-84.47265625, -22.4609375, 62.5, -22.4609375, 0.0, 1622079572.2158194
-1000.0, -20.99609375, -21.97265625, -142.08984375, 0.0, 1622079572.2197256
-228.515625, 9.765625, -86.42578125, -52.734375, 0.0, 1622079572.2236319
-822.75390625, 8.30078125, -56.15234375, 58.59375, 0.0, 1622079572.227538
240.234375, -14.6484375, 21.484375, -5.859375, 0.0, 1622079572.2314444
-1000.0, -23.92578125, -32.2265625, -129.39453125, 0.0, 1622079572.2353506
-393.5546875, 15.13671875, -53.22265625, -6.34765625, 0.0, 1622079572.2392569
-854.4921875, 22.4609375, -38.0859375, 140.13671875, 0.0, 1622079572.243163
395.01953125, -14.6484375, -36.62109375, 27.83203125, 0.0, 1622079572.2470694
-1000.0, -36.62109375, 0.9765625, -85.9375, 0.0, 1622079572.2509756
-992.1875, -84.9609375, -75.68359375, -99.12109375, 0.0, 1622079572.2548819
509.765625, -26.3671875, -117.67578125, -6.8359375, 0.0, 1622079572.258788
945.3125, -3.90625, -46.38671875, 27.34375, 0.0, 1622079572.2626944
-573.73046875, -25.390625, 20.01953125, -74.21875, 0.0, 1622079572.2666006
-1000.0, -8.7890625, -53.22265625, -141.6015625, 0.0, 1622079572.2705069
-108.3984375, -16.11328125, -143.06640625, -56.15234375, 0.0, 1622079572.274413
-821.77734375, 43.45703125, -68.359375, 39.0625, 0.0, 1622079572.2783194
104.4921875, -110.3515625, 62.01171875, 2.9296875, 0.0, 1622079572.2822256
-1000.0, -362.79296875, 19.53125, -68.359375, 0.0, 1622079572.2861319
-246.58203125, -108.3984375, -104.98046875, -71.77734375, 0.0, 1622079572.290038
-817.87109375, 62.01171875, -100.5859375, 11.71875, 0.0, 1622079572.2939444
242.1875, -72.75390625, 71.77734375, 72.265625, 0.0, 1622079572.2978506
-1000.0, -136.23046875, 135.7421875, 20.99609375, 0.0, 1622079572.3017569
-583.0078125, 4.39453125, -71.2890625, -89.84375, 0.0, 1622079572.305663
-972.65625, 55.6640625, -104.00390625, 3.90625, 0.0, 1622079572.3095694
652.83203125, -49.31640625, 85.9375, 98.14453125, 0.0, 1622079572.3134756
-891.11328125, -60.05859375, 121.58203125, -20.01953125, 0.0, 1622079572.3173819
-1000.0, 25.390625, -49.8046875, -126.46484375, 0.0, 1622079572.321288
284.66796875, 60.546875, -98.14453125, -23.92578125, 0.0, 1622079572.3251944
-875.9765625, -43.9453125, 66.40625, 110.83984375, 0.0, 1622079572.3291006
-266.11328125, -83.984375, 139.6484375, 18.06640625, 0.0, 1622079572.3330069
-1000.0, 22.4609375, 3.41796875, -143.5546875, 0.0, 1622079572.336913
-191.40625, 43.9453125, -78.125, -60.05859375, 0.0, 1622079572.3408194
-823.73046875, 41.015625, -29.296875, 55.6640625, 0.0, 1622079572.3447256
189.94140625, 13.18359375, 52.24609375, -25.390625, 0.0, 1622079572.3486319
-1000.0, 4.8828125, 3.41796875, -139.6484375, 0.0, 1622079572.352538
-304.6875, 16.6015625, -87.40234375, -83.984375, 0.0, 1622079572.3564444
-828.61328125, 15.625, -54.19921875, 56.15234375, 0.0, 1622079572.3603506
288.57421875, -8.7890625, 44.921875, 25.87890625, 0.0, 1622079572.3642569
-1000.0, 15.13671875, 23.4375, -121.09375, 0.0, 1622079572.368163
-682.6171875, -17.08984375, -8.7890625, -74.70703125, 0.0, 1622079572.3720694
949.70703125, -165.52734375, 88.8671875, 161.62109375, 0.0, 1622079572.3759756
679.19921875, -104.00390625, 69.82421875, 109.375, 0.0, 1622079572.3798819
-884.765625, 34.66796875, 15.13671875, -106.93359375, 0.0, 1622079572.383788
-1000.0, -103.515625, 48.33984375, -53.7109375, 0.0, 1622079572.3876944
234.375, -193.84765625, 70.3125, 140.625, 0.0, 1622079572.3916006
-842.7734375, -11.23046875, 5.859375, 93.75, 0.0, 1622079572.3955069
-185.546875, 21.484375, 23.92578125, -54.19921875, 0.0, 1622079572.399413
-1000.0, -20.99609375, -15.625, -123.046875, 0.0, 1622079572.4033194
-224.12109375, 1.953125, -99.12109375, -61.03515625, 0.0, 1622079572.4072256
-827.1484375, 52.734375, -50.29296875, 38.0859375, 0.0, 1622079572.4111319
235.83984375, 33.203125, 32.71484375, -17.08984375, 0.0, 1622079572.415038
-1000.0, 19.04296875, 8.30078125, -116.2109375, 0.0, 1622079572.4189444
-384.765625, 33.69140625, -96.6796875, -90.8203125, 0.0, 1622079572.4228506
-852.5390625, 39.0625, -104.4921875, 25.390625, 0.0, 1622079572.4267569
359.375, 32.2265625, -31.73828125, 1.953125, 0.0, 1622079572.430663
-1000.0, -146.484375, 125.0, 7.32421875, 0.0, 1622079572.4345694
-909.1796875, -147.94921875, 66.89453125, 0.48828125, 0.0, 1622079572.4384756
651.3671875, 71.2890625, -119.140625, -17.578125, 0.0, 1622079572.4423819
858.88671875, 6.34765625, -31.25, 47.8515625, 0.0, 1622079572.446288
-689.453125, -65.91796875, 64.453125, -38.0859375, 0.0, 1622079572.4501944
-1000.0, 12.6953125, -33.203125, -138.18359375, 0.0, 1622079572.4541006
-13.18359375, 43.45703125, -110.83984375, -47.8515625, 0.0, 1622079572.4580069
-814.94140625, 11.23046875, -26.85546875, 56.15234375, 0.0, 1622079572.461913
21.484375, 3.90625, 57.12890625, -20.5078125, 0.0, 1622079572.4658194
-1000.0, 17.578125, 2.44140625, -122.0703125, 0.0, 1622079572.4697256
-239.2578125, 36.62109375, -112.79296875, -93.75, 0.0, 1622079572.4736319
-821.2890625, -20.5078125, -35.15625, 83.984375, 0.0, 1622079572.477538
242.67578125, -131.8359375, 130.859375, 107.421875, 0.0, 1622079572.4814444
-1000.0, -51.7578125, 61.03515625, -81.54296875, 0.0, 1622079572.4853506
-539.55078125, 50.78125, -99.609375, -122.55859375, 0.0, 1622079572.4892569
-928.7109375, 5.859375, -26.3671875, 89.84375, 0.0, 1622079572.493163
520.01953125, -62.5, 135.25390625, 154.296875, 0.0, 1622079572.4970694
-1000.0, -4.8828125, 54.19921875, -81.54296875, 0.0, 1622079572.5009756
-1000.0, 27.83203125, -64.453125, -153.3203125, 0.0, 1622079572.5048819
401.3671875, 13.671875, -75.68359375, 0.9765625, 0.0, 1622079572.508788
-966.30859375, -4.39453125, 0.9765625, 53.22265625, 0.0, 1622079572.5126944
-441.40625, 0.9765625, 48.828125, -79.1015625, 0.0, 1622079572.5166006
-1000.0, 21.484375, -33.203125, -149.90234375, 0.0, 1622079572.5205069
-127.9296875, -85.9375, -80.56640625, -12.20703125, 0.0, 1622079572.524413
-820.3125, -85.44921875, -13.18359375, 84.9609375, 0.0, 1622079572.5283194
124.51171875, 20.99609375, 38.57421875, -51.7578125, 0.0, 1622079572.5322256
-1000.0, 7.32421875, 0.0, -144.04296875, 0.0, 1622079572.5361319
-251.953125, 11.71875, -83.0078125, -85.44921875, 0.0, 1622079572.540038
-818.359375, 11.71875, -55.6640625, 29.78515625, 0.0, 1622079572.5439444
241.69921875, 53.22265625, 25.87890625, -5.859375, 0.0, 1622079572.5478506
-1000.0, -84.9609375, 39.55078125, -98.14453125, 0.0, 1622079572.5517569
-643.06640625, -210.44921875, -43.45703125, -71.2890625, 0.0, 1622079572.555663
977.05078125, -11.23046875, -84.47265625, 22.4609375, 0.0, 1622079572.5595694
666.9921875, 95.21484375, 14.6484375, 21.484375, 0.0, 1622079572.5634756
-874.51171875, -155.2734375, 101.5625, -45.8984375, 0.0, 1622079572.5673819
-1000.0, -473.6328125, 72.265625, -13.671875, 0.0, 1622079572.571288
203.125, -135.7421875, -56.15234375, 23.92578125, 0.0, 1622079572.5751944
-870.1171875, 142.08984375, -33.69140625, 25.390625, 0.0, 1622079572.5791006
-251.46484375, -207.03125, 125.0, 7.32421875, 0.0, 1622079572.5830069
-1000.0, -328.125, 82.03125, -55.6640625, 0.0, 1622079572.586913
-203.61328125, 46.38671875, -91.796875, -72.265625, 0.0, 1622079572.5908194
-823.73046875, 117.67578125, -64.94140625, 25.390625, 0.0, 1622079572.5947256
218.26171875, -150.390625, 42.48046875, 1.953125, 0.0, 1622079572.5986319
-1000.0, -184.08203125, 2.44140625, -101.07421875, 0.0, 1622079572.602538
-313.4765625, 95.21484375, -104.98046875, -103.02734375, 0.0, 1622079572.6064444
-829.1015625, 161.62109375, -89.35546875, 12.20703125, 0.0, 1622079572.6103506
267.578125, -360.3515625, 46.38671875, 47.8515625, 0.0, 1622079572.6142569
-1000.0, -406.73828125, 71.77734375, -58.59375, 0.0, 1622079572.618163
-781.25, 116.69921875, -86.9140625, -127.44140625, 0.0, 1622079572.6220694
806.640625, 113.76953125, -112.3046875, -6.34765625, 0.0, 1622079572.6259756
801.7578125, 59.5703125, -4.8828125, 41.015625, 0.0, 1622079572.6298819
-747.55859375, 58.59375, 43.9453125, -79.58984375, 0.0, 1622079572.633788
-1000.0, 102.5390625, -34.66796875, -146.97265625, 0.0, 1622079572.6376944
83.49609375, 82.51953125, -83.49609375, -31.25, 0.0, 1622079572.6416006
-821.77734375, 54.19921875, -20.01953125, 63.96484375, 0.0, 1622079572.6455069
-89.35546875, 38.0859375, 44.43359375, -35.15625, 0.0, 1622079572.649413
-1000.0, 151.3671875, -20.01953125, -154.296875, 0.0, 1622079572.6533194
-229.4921875, -110.83984375, -30.76171875, -20.99609375, 0.0, 1622079572.6572256
-824.70703125, -635.7421875, 88.8671875, 180.17578125, 0.0, 1622079572.6611319
242.1875, -235.3515625, 75.68359375, 33.69140625, 0.0, 1622079572.665038
-1000.0, 195.80078125, -20.5078125, -152.34375, 0.0, 1622079572.6689444
-442.3828125, -197.265625, -12.20703125, -23.92578125, 0.0, 1622079572.6728506
-877.9296875, -546.875, 72.265625, 195.80078125, 0.0, 1622079572.6767569
428.7109375, -29.296875, 26.3671875, 54.6875, 0.0, 1622079572.680663
-1000.0, 166.015625, 5.37109375, -120.1171875, 0.0, 1622079572.6845694
-942.87109375, 49.31640625, -43.9453125, -122.0703125, 0.0, 1622079572.6884756
597.16796875, 64.453125, -100.09765625, -9.765625, 0.0, 1622079572.6923819
926.26953125, 116.69921875, -42.96875, 32.71484375, 0.0, 1622079572.696288
-592.7734375, 192.87109375, 25.87890625, -76.171875, 0.0, 1622079572.7001944
-1000.0, -307.6171875, 9.765625, -77.63671875, 0.0, 1622079572.7041006
-69.82421875, -391.6015625, -75.1953125, 28.3203125, 0.0, 1622079572.7080069
-820.80078125, 182.12890625, -91.30859375, 59.08203125, 0.0, 1622079572.711913
49.8046875, 128.90625, -2.44140625, -22.94921875, 0.0, 1622079572.7158194
-1000.0, -180.17578125, 0.0, -81.54296875, 0.0, 1622079572.7197256
-240.72265625, -24.4140625, -104.00390625, -39.55078125, 0.0, 1622079572.7236319
-821.2890625, 192.87109375, -101.5625, 41.50390625, 0.0, 1622079572.727538
243.1640625, 97.16796875, 3.41796875, 6.8359375, 0.0, 1622079572.7314444
-1000.0, 86.42578125, -13.671875, -106.93359375, 0.0, 1622079572.7353506
-577.1484375, 121.58203125, -118.1640625, -95.21484375, 0.0, 1622079572.7392569
-957.03125, 179.19921875, -126.953125, 15.13671875, 0.0, 1622079572.743163
596.19140625, 37.109375, 1.953125, 54.6875, 0.0, 1622079572.7470694
-955.56640625, -169.921875, 74.21875, -21.484375, 0.0, 1622079572.7509756
-1000.0, 13.18359375, -70.80078125, -120.60546875, 0.0, 1622079572.7548819
350.09765625, 186.03515625, -166.015625, -54.19921875, 0.0, 1622079572.758788
-924.31640625, -98.14453125, -15.13671875, 95.703125, 0.0, 1622079572.7626944
-370.1171875, -312.01171875, 95.21484375, 34.66796875, 0.0, 1622079572.7666006
-1000.0, 45.8984375, -50.29296875, -143.5546875, 0.0, 1622079572.7705069
-161.62109375, 166.015625, -154.296875, -87.890625, 0.0, 1622079572.774413
-821.77734375, -15.13671875, -50.29296875, 84.9609375, 0.0, 1622079572.7783194
174.8046875, -34.1796875, 57.12890625, 32.71484375, 0.0, 1622079572.7822256
-1000.0, 98.6328125, -31.25, -146.484375, 0.0, 1622079572.7861319
-281.73828125, 109.86328125, -104.4921875, -103.02734375, 0.0, 1622079572.790038
-822.265625, 90.8203125, -31.25, 60.05859375, 0.0, 1622079572.7939444
265.625, 46.875, 51.26953125, 25.87890625, 0.0, 1622079572.7978506
-1000.0, 67.3828125, 8.7890625, -125.0, 0.0, 1622079572.8017569
-764.16015625, 101.07421875, -102.5390625, -133.30078125, 0.0, 1622079572.805663
857.91015625, -154.78515625, -46.875, 59.08203125, 0.0, 1622079572.8095694
693.84765625, -137.6953125, 57.12890625, 83.0078125, 0.0, 1622079572.8134756
-872.0703125, 104.98046875, 34.66796875, -100.09765625, 0.0, 1622079572.8173819
-1000.0, 52.734375, -35.64453125, -151.3671875, 0.0, 1622079572.821288
147.94921875, 43.9453125, -101.5625, -41.9921875, 0.0, 1622079572.8251944
-836.9140625, 75.68359375, -41.50390625, 59.08203125, 0.0, 1622079572.8291006
-151.85546875, 128.90625, 36.62109375, -43.9453125, 0.0, 1622079572.8330069
-1000.0, -48.33984375, 15.13671875, -112.3046875, 0.0, 1622079572.836913
-225.5859375, -311.03515625, -10.25390625, 19.53125, 0.0, 1622079572.8408194
-827.1484375, -19.04296875, -20.01953125, 83.984375, 0.0, 1622079572.8447256
232.91015625, 156.25, 9.765625, -24.4140625, 0.0, 1622079572.8486319
-1000.0, -83.984375, 48.828125, -63.96484375, 0.0, 1622079572.852538
-404.78515625, -284.1796875, 40.52734375, 45.41015625, 0.0, 1622079572.8564444
-861.81640625, 1.46484375, -50.78125, 76.171875, 0.0, 1622079572.8603506
312.98828125, 161.62109375, -18.06640625, 13.671875, 0.0, 1622079572.8642569
-1000.0, -128.90625, 27.34375, -92.28515625, 0.0, 1622079572.868163
-897.4609375, -142.08984375, -54.6875, -114.2578125, 0.0, 1622079572.8720694
658.203125, 151.85546875, -102.05078125, -10.25390625, 0.0, 1622079572.8759756
842.7734375, 108.3984375, -31.25, 41.015625, 0.0, 1622079572.8798819
-716.30859375, 70.3125, 25.87890625, -65.91796875, 0.0, 1622079572.883788
-1000.0, 96.6796875, -34.66796875, -132.8125, 0.0, 1622079572.8876944
23.92578125, 106.4453125, -97.65625, -27.83203125, 0.0, 1622079572.8916006
-823.2421875, 162.59765625, -58.10546875, 57.6171875, 0.0, 1622079572.8955069
-53.7109375, -235.83984375, 78.125, 39.0625, 0.0, 1622079572.899413
-1000.0, -334.47265625, 40.52734375, -44.921875, 0.0, 1622079572.9033194
-231.93359375, 115.234375, -124.0234375, -73.73046875, 0.0, 1622079572.9072256
-826.171875, 123.046875, -75.68359375, 50.29296875, 0.0, 1622079572.9111319
243.65234375, 58.10546875, 55.17578125, 48.33984375, 0.0, 1622079572.915038
-1000.0, 74.70703125, -0.9765625, -96.6796875, 0.0, 1622079572.9189444
-529.78515625, 121.09375, -121.58203125, -115.234375, 0.0, 1622079572.9228506
-920.8984375, 109.86328125, -100.5859375, 31.73828125, 0.0, 1622079572.9267569
462.40234375, 63.4765625, -9.765625, 41.50390625, 0.0, 1622079572.930663
-1000.0, 55.17578125, 21.97265625, -88.37890625, 0.0, 1622079572.9345694
-974.12109375, 124.51171875, -88.37890625, -146.97265625, 0.0, 1622079572.9384756
516.11328125, -50.29296875, -63.4765625, 52.24609375, 0.0, 1622079572.9423819
-989.74609375, -274.4140625, 138.671875, 228.515625, 0.0, 1622079572.946288
-470.703125, -35.15625, 88.8671875, -13.671875, 0.0, 1622079572.9501944
-1000.0, 84.47265625, -62.98828125, -171.875, 0.0, 1622079572.9541006
-105.46875, 80.078125, -131.8359375, -67.3828125, 0.0, 1622079572.9580069
-819.82421875, 83.0078125, -77.1484375, 37.59765625, 0.0, 1622079572.961913
92.28515625, 57.6171875, 15.13671875, -39.0625, 0.0, 1622079572.9658194
-1000.0, 59.08203125, -26.3671875, -150.390625, 0.0, 1622079572.9697256
-245.1171875, 63.4765625, -73.73046875, -54.6875, 0.0, 1622079572.9736319
-816.40625, 59.5703125, -46.875, 81.0546875, 0.0, 1622079572.977538
241.2109375, 57.6171875, 10.7421875, 5.859375, 0.0, 1622079572.9814444
-1000.0, 64.94140625, -32.71484375, -141.11328125, 0.0, 1622079572.9853506
-514.6484375, -21.484375, -16.6015625, -9.27734375, 0.0, 1622079572.9892569
-915.52734375, -34.66796875, 23.92578125, 162.59765625, 0.0, 1622079572.993163
539.0625, 53.7109375, -44.43359375, 27.83203125, 0.0, 1622079572.9970694
-981.93359375, 38.57421875, -33.69140625, -107.421875, 0.0, 1622079573.0009756
-1000.0, -196.77734375, -2.44140625, -48.33984375, 0.0, 1622079573.0048819
347.16796875, -130.37109375, -48.828125, 57.12890625, 0.0, 1622079573.008788
-905.76171875, 92.28515625, -78.125, 37.109375, 0.0, 1622079573.0126944
-333.49609375, 29.296875, 23.4375, -38.0859375, 0.0, 1622079573.0166006
-1000.0, -14.16015625, -0.48828125, -80.56640625, 0.0, 1622079573.0205069
-192.87109375, 15.625, -140.13671875, -42.96875, 0.0, 1622079573.024413
-826.66015625, 157.71484375, -88.8671875, 49.8046875, 0.0, 1622079573.0283194
201.171875, -142.08984375, 26.85546875, 8.7890625, 0.0, 1622079573.0322256
-1000.0, -663.0859375, -2.9296875, -67.3828125, 0.0, 1622079573.0361319
-312.5, -199.70703125, -123.53515625, -62.98828125, 0.0, 1622079573.040038
-830.078125, 203.125, -145.01953125, 20.99609375, 0.0, 1622079573.0439444
297.8515625, -147.94921875, 41.015625, 85.9375, 0.0, 1622079573.0478506
-1000.0, -280.2734375, 110.3515625, -8.30078125, 0.0, 1622079573.0517569
-708.49609375, 85.44921875, -81.0546875, -118.65234375, 0.0, 1622079573.055663
891.6015625, 133.30078125, -142.578125, 0.9765625, 0.0, 1622079573.0595694
804.19921875, 37.59765625, -11.71875, 64.94140625, 0.0, 1622079573.0634756
-739.74609375, 13.18359375, 43.45703125, -54.19921875, 0.0, 1622079573.0673819
-1000.0, 70.3125, -44.43359375, -131.8359375, 0.0, 1622079573.071288
145.5078125, 134.765625, -112.79296875, -55.6640625, 0.0, 1622079573.0751944
-806.640625, -97.65625, 83.984375, 184.08203125, 0.0, 1622079573.0791006
-42.96875, -204.58984375, 201.66015625, 132.32421875, 0.0, 1622079573.0830069
-1000.0, 62.98828125, -31.73828125, -154.78515625, 0.0, 1622079573.086913
-235.3515625, 97.65625, -125.9765625, -85.9375, 0.0, 1622079573.0908194
-821.77734375, -5.859375, -32.2265625, 85.44921875, 0.0, 1622079573.0947256
